|6.6.6
primRef_quadrant2_1.tab                                                                             
           2
T(K)    
   2766.6999999999998     
   31.623076923076926     
          40
P(bar)  
   1.0000000000000000     
   11965.794871794871     
          40
           6
T(K)           P(bar)         mode           rho,kg/m3      Ks,bar         Gs,bar        
  2766.70        1.00000      -0.298184E+011   3057.12        675928.        425539.     
  2798.32        1.00000      -0.296082E+011   3049.87        668962.        419394.     
  2829.95        1.00000      -0.293971E+011   3042.55        661975.        413214.     
  2861.57        1.00000      -0.291853E+011   3035.14        654966.        406999.     
  2893.19        1.00000      -0.289726E+011   3027.64        647936.        400748.     
  2924.82        1.00000      -0.287590E+011   3020.06        640883.        394460.     
  2956.44        1.00000      -0.285444E+011   3012.39        633807.        388133.     
  2988.06        1.00000      -0.283290E+011   3004.63        626708.        381766.     
  3019.68        1.00000      -0.281126E+011   2996.77        619510.        375359.     
  3051.31        1.00000      -0.278951E+011   2988.81        612435.        368909.     
  3082.93        1.00000      -0.276767E+011   2980.75        605261.        362415.     
  3114.55        1.00000      -0.274571E+011   2972.58        598061.        355875.     
  3146.18        1.00000      -0.272364E+011   2964.31        590833.        349289.     
  3177.80        1.00000      -0.270146E+011   2955.92        583579.        342653.     
  3209.42        1.00000      -0.267915E+011   2947.42        576361.        335967.     
  3241.05        1.00000      -0.265672E+011   2938.80        568982.        329228.     
  3272.67        1.00000      -0.263416E+011   2930.05        561638.        322434.     
  3304.29        1.00000      -0.261146E+011   2921.17        554266.        315583.     
  3335.92        1.00000      -0.258862E+011   2912.16        546653.        308673.     
  3367.54        1.00000      -0.256563E+011   2903.01        539420.        301700.     
  3399.16        1.00000      -0.254249E+011   2893.71        531946.        294663.     
  3430.78        1.00000      -0.251919E+011   2884.26        524338.        287558.     
  3462.41        1.00000      -0.249572E+011   2874.65        516893.        280381.     
  3494.03        1.00000      -0.247207E+011   2864.88        509310.        273131.     
  3525.65        1.00000      -0.244824E+011   2854.93        501686.        265802.     
  3557.28        1.00000      -0.242422E+011   2844.80        494025.        258391.     
  3588.90        1.00000      -0.239999E+011   2834.49        486321.        250893.     
  3620.52        1.00000      -0.237555E+011   2823.97        478573.        243304.     
  3652.15        1.00000      -0.235088E+011   2813.25        470781.        235618.     
  3683.77        1.00000      -0.232598E+011   2802.31        462944.        227830.     
  3715.39        1.00000      -0.230083E+011   2791.14        455053.        219934.     
  3747.02        1.00000      -0.227542E+011   2779.73        447114.        211922.     
  3778.64        1.00000      -0.224973E+011   2768.06        438661.        203788.     
  3810.26        1.00000      -0.222374E+011   2756.13        431578.        195522.     
  3841.88        1.00000      -0.219744E+011   2743.90        422977.        187116.     
  3873.51        1.00000      -0.217081E+011   2731.37        414811.        178558.     
  3905.13        1.00000      -0.214383E+011   2718.52        406590.        169838.     
  3936.75        1.00000      -0.211647E+011   2705.32        398302.        160942.     
  3968.38        1.00000      -0.208870E+011   2691.76        389944.        151856.     
  4000.00        1.00000      -0.206051E+011   2677.80        380093.        142561.     
  2766.70        11966.8      -0.294558E+011   3119.89        761532.        457606.     
  2798.32        11966.8      -0.292553E+011   3113.38        754866.        451737.     
  2829.95        11966.8      -0.290542E+011   3106.81        748199.        445842.     
  2861.57        11966.8      -0.288526E+011   3100.18        741510.        439921.     
  2893.19        11966.8      -0.286504E+011   3093.49        734807.        433973.     
  2924.82        11966.8      -0.284477E+011   3086.74        728088.        427997.     
  2956.44        11966.8      -0.282443E+011   3079.92        721355.        421992.     
  2988.06        11966.8      -0.280403E+011   3073.03        714605.        415958.     
  3019.68        11966.8      -0.278357E+011   3066.08        707840.        409893.     
  3051.31        11966.8      -0.276305E+011   3059.05        701059.        403798.     
  3082.93        11966.8      -0.274245E+011   3051.95        693904.        397671.     
  3114.55        11966.8      -0.272179E+011   3044.78        686546.        391511.     
  3146.18        11966.8      -0.270105E+011   3037.54        680615.        385317.     
  3177.80        11966.8      -0.268025E+011   3030.21        673764.        379088.     
  3209.42        11966.8      -0.265936E+011   3022.81        666898.        372824.     
  3241.05        11966.8      -0.263840E+011   3015.32        660480.        366523.     
  3272.67        11966.8      -0.261736E+011   3007.75        653108.        360184.     
  3304.29        11966.8      -0.259623E+011   3000.09        646185.        353806.     
  3335.92        11966.8      -0.257502E+011   2992.34        639243.        347387.     
  3367.54        11966.8      -0.255372E+011   2984.50        632282.        340926.     
  3399.16        11966.8      -0.253233E+011   2976.57        625300.        334422.     
  3430.78        11966.8      -0.251084E+011   2968.53        618298.        327873.     
  3462.41        11966.8      -0.248925E+011   2960.40        611274.        321277.     
  3494.03        11966.8      -0.246756E+011   2952.16        604228.        314634.     
  3525.65        11966.8      -0.244577E+011   2943.81        597162.        307940.     
  3557.28        11966.8      -0.242387E+011   2935.35        590071.        301195.     
  3588.90        11966.8      -0.240186E+011   2926.78        582960.        294395.     
  3620.52        11966.8      -0.237972E+011   2918.09        573544.        287540.     
  3652.15        11966.8      -0.235747E+011   2909.27        568662.        280626.     
  3683.77        11966.8      -0.233509E+011   2900.32        561477.        273652.     
  3715.39        11966.8      -0.231258E+011   2891.25        554267.        266614.     
  3747.02        11966.8      -0.228993E+011   2882.03        547030.        259509.     
  3778.64        11966.8      -0.226714E+011   2872.68        539902.        252336.     
  3810.26        11966.8      -0.224420E+011   2863.17        532480.        245089.     
  3841.88        11966.8      -0.222110E+011   2853.51        525226.        237767.     
  3873.51        11966.8      -0.219785E+011   2843.69        517578.        230364.     
  3905.13        11966.8      -0.217442E+011   2833.70        510444.        222878.     
  3936.75        11966.8      -0.215083E+011   2823.54        503038.        215303.     
  3968.38        11966.8      -0.212704E+011   2813.20        495606.        207635.     
  4000.00        11966.8      -0.210307E+011   2802.67        483408.        199868.     
  2766.70        23932.6      -0.284132E+011   3099.32        438961.        413980.     
  2798.32        23932.6      -0.281569E+011   3087.96        418044.        408264.     
  2829.95        23932.6      -0.278869E+011   3075.51        395274.        402273.     
  2861.57        23932.6      -0.275983E+011   3061.60        369948.        395909.     
  2893.19        23932.6      -0.272827E+011   3045.57        340787.        388997.     
  2924.82        23932.6      -0.269218E+011   3026.03        304982.        381165.     
  2956.44        23932.6      -0.264579E+011   2998.57        253470.        371212.     
  2988.06        23932.6      -0.276252E+011   3133.39        799300.        447098.     
  3019.68        23932.6      -0.274290E+011   3127.09        792902.        441284.     
  3051.31        23932.6      -0.272323E+011   3120.74        786381.        435446.     
  3082.93        23932.6      -0.270352E+011   3114.34        779083.        429583.     
  3114.55        23932.6      -0.268376E+011   3107.88        773303.        423695.     
  3146.18        23932.6      -0.266396E+011   3101.36        766747.        417781.     
  3177.80        23932.6      -0.264410E+011   3094.79        760179.        411841.     
  3209.42        23932.6      -0.262419E+011   3088.15        753599.        405873.     
  3241.05        23932.6      -0.260424E+011   3081.46        747006.        399877.     
  3272.67        23932.6      -0.258422E+011   3074.70        740402.        393853.     
  3304.29        23932.6      -0.256416E+011   3067.88        733723.        387800.     
  3335.92        23932.6      -0.254403E+011   3060.99        727154.        381716.     
  3367.54        23932.6      -0.252385E+011   3054.04        720511.        375602.     
  3399.16        23932.6      -0.250361E+011   3047.02        715191.        369456.     
  3430.78        23932.6      -0.248330E+011   3039.92        707186.        363276.     
  3462.41        23932.6      -0.246294E+011   3032.76        700502.        357064.     
  3494.03        23932.6      -0.244251E+011   3025.52        693806.        350816.     
  3525.65        23932.6      -0.242201E+011   3018.21        687096.        344533.     
  3557.28        23932.6      -0.240144E+011   3010.82        680371.        338213.     
  3588.90        23932.6      -0.238080E+011   3003.35        673631.        331855.     
  3620.52        23932.6      -0.236009E+011   2995.80        666879.        325458.     
  3652.15        23932.6      -0.233931E+011   2988.16        660112.        319020.     
  3683.77        23932.6      -0.231844E+011   2980.44        653326.        312540.     
  3715.39        23932.6      -0.229750E+011   2972.63        646530.        306017.     
  3747.02        23932.6      -0.227647E+011   2964.73        639816.        299450.     
  3778.64        23932.6      -0.225536E+011   2956.73        633009.        292836.     
  3810.26        23932.6      -0.223416E+011   2948.64        626039.        286174.     
  3841.88        23932.6      -0.221287E+011   2940.44        619176.        279462.     
  3873.51        23932.6      -0.219148E+011   2932.15        612300.        272698.     
  3905.13        23932.6      -0.217000E+011   2923.74        605406.        265880.     
  3936.75        23932.6      -0.214842E+011   2915.23        598492.        259007.     
  3968.38        23932.6      -0.212673E+011   2906.61        593008.        252075.     
  4000.00        23932.6      -0.210494E+011   2897.87        584622.        245083.     
  2766.70        35898.4      -0.283099E+011   3189.12        594875.        442474.     
  2798.32        35898.4      -0.281095E+011   3182.14        580618.        437826.     
  2829.95        35898.4      -0.279060E+011   3174.90        565946.        433119.     
  2861.57        35898.4      -0.278703E+011   3210.43        906245.        498260.     
  2893.19        35898.4      -0.276817E+011   3204.80        900000.        492712.     
  2924.82        35898.4      -0.274927E+011   3199.14        893672.        487147.     
  2956.44        35898.4      -0.273035E+011   3193.43        887373.        481563.     
  2988.06        35898.4      -0.271139E+011   3187.68        881067.        475960.     
  3019.68        35898.4      -0.269241E+011   3181.89        874743.        470338.     
  3051.31        35898.4      -0.267339E+011   3176.05        868429.        464697.     
  3082.93        35898.4      -0.265434E+011   3170.18        862098.        459035.     
  3114.55        35898.4      -0.263525E+011   3164.26        855759.        453354.     
  3146.18        35898.4      -0.261614E+011   3158.29        849411.        447651.     
  3177.80        35898.4      -0.259698E+011   3152.28        843053.        441928.     
  3209.42        35898.4      -0.257779E+011   3146.22        836689.        436182.     
  3241.05        35898.4      -0.255857E+011   3140.12        830316.        430415.     
  3272.67        35898.4      -0.253931E+011   3133.97        823934.        424625.     
  3304.29        35898.4      -0.252001E+011   3127.76        817543.        418812.     
  3335.92        35898.4      -0.250067E+011   3121.51        811144.        412975.     
  3367.54        35898.4      -0.248129E+011   3115.21        804735.        407114.     
  3399.16        35898.4      -0.246187E+011   3108.85        798317.        401228.     
  3430.78        35898.4      -0.244241E+011   3102.44        791889.        395316.     
  3462.41        35898.4      -0.242291E+011   3095.98        786787.        389379.     
  3494.03        35898.4      -0.240336E+011   3089.46        779008.        383415.     
  3525.65        35898.4      -0.238376E+011   3082.89        772551.        377423.     
  3557.28        35898.4      -0.236412E+011   3076.25        766088.        371404.     
  3588.90        35898.4      -0.234444E+011   3069.56        759615.        365355.     
  3620.52        35898.4      -0.232470E+011   3062.81        753133.        359277.     
  3652.15        35898.4      -0.230491E+011   3055.99        747390.        353169.     
  3683.77        35898.4      -0.228508E+011   3049.11        740135.        347029.     
  3715.39        35898.4      -0.226519E+011   3042.17        733622.        340857.     
  3747.02        35898.4      -0.224524E+011   3035.16        727098.        334653.     
  3778.64        35898.4      -0.222524E+011   3028.08        722793.        328414.     
  3810.26        35898.4      -0.220519E+011   3020.93        714022.        322140.     
  3841.88        35898.4      -0.218507E+011   3013.71        707465.        315830.     
  3873.51        35898.4      -0.216490E+011   3006.42        700906.        309482.     
  3905.13        35898.4      -0.214466E+011   2999.05        694330.        303097.     
  3936.75        35898.4      -0.212436E+011   2991.61        687931.        296671.     
  3968.38        35898.4      -0.210399E+011   2984.09        681148.        290205.     
  4000.00        35898.4      -0.208356E+011   2976.48        674543.        283696.     
  2766.70        47864.2      -0.278154E+011   3274.02       0.100316E+007   540881.     
  2798.32        47864.2      -0.276320E+011   3268.87        997009.        535519.     
  2829.95        47864.2      -0.274484E+011   3263.68        990916.        530142.     
  2861.57        47864.2      -0.272646E+011   3258.46        984787.        524751.     
  2893.19        47864.2      -0.270805E+011   3253.20        978652.        519345.     
  2924.82        47864.2      -0.268963E+011   3247.92        972511.        513924.     
  2956.44        47864.2      -0.267118E+011   3242.60        966364.        508487.     
  2988.06        47864.2      -0.265272E+011   3237.25        960132.        503034.     
  3019.68        47864.2      -0.263422E+011   3231.86        954009.        497566.     
  3051.31        47864.2      -0.261571E+011   3226.44        947887.        492081.     
  3082.93        47864.2      -0.259717E+011   3220.98        941716.        486579.     
  3114.55        47864.2      -0.257861E+011   3215.49        935540.        481060.     
  3146.18        47864.2      -0.256003E+011   3209.96        929355.        475524.     
  3177.80        47864.2      -0.254142E+011   3204.39        923166.        469971.     
  3209.42        47864.2      -0.252278E+011   3198.79        916971.        464399.     
  3241.05        47864.2      -0.250412E+011   3193.15        910410.        458810.     
  3272.67        47864.2      -0.248543E+011   3187.47        904560.        453202.     
  3304.29        47864.2      -0.246671E+011   3181.75        898344.        447574.     
  3335.92        47864.2      -0.244797E+011   3175.99        892124.        441928.     
  3367.54        47864.2      -0.242920E+011   3170.19        885896.        436262.     
  3399.16        47864.2      -0.241040E+011   3164.34        879662.        430575.     
  3430.78        47864.2      -0.239157E+011   3158.46        873421.        424868.     
  3462.41        47864.2      -0.237271E+011   3152.53        867174.        419140.     
  3494.03        47864.2      -0.235382E+011   3146.56        860920.        413390.     
  3525.65        47864.2      -0.233490E+011   3140.54        854659.        407619.     
  3557.28        47864.2      -0.231594E+011   3134.48        848393.        401825.     
  3588.90        47864.2      -0.229695E+011   3128.37        842144.        396008.     
  3620.52        47864.2      -0.227793E+011   3122.21        835839.        390167.     
  3652.15        47864.2      -0.225888E+011   3116.01        829551.        384303.     
  3683.77        47864.2      -0.223979E+011   3109.75        823257.        378414.     
  3715.39        47864.2      -0.222066E+011   3103.45        816209.        372499.     
  3747.02        47864.2      -0.220150E+011   3097.09        810650.        366559.     
  3778.64        47864.2      -0.218229E+011   3090.69        804336.        360592.     
  3810.26        47864.2      -0.216305E+011   3084.23        798011.        354598.     
  3841.88        47864.2      -0.214377E+011   3077.71        790780.        348576.     
  3873.51        47864.2      -0.212445E+011   3071.14        785348.        342526.     
  3905.13        47864.2      -0.210509E+011   3064.52        779008.        336446.     
  3936.75        47864.2      -0.208569E+011   3057.83        772657.        330336.     
  3968.38        47864.2      -0.206624E+011   3051.09        766478.        324195.     
  4000.00        47864.2      -0.204674E+011   3044.29        759939.        318022.     
  2766.70        59830.0      -0.271409E+011   3317.62       0.107939E+007   565688.     
  2798.32        59830.0      -0.269611E+011   3312.76       0.107339E+007   560436.     
  2829.95        59830.0      -0.267811E+011   3307.87       0.106738E+007   555173.     
  2861.57        59830.0      -0.266010E+011   3302.95       0.106137E+007   549896.     
  2893.19        59830.0      -0.264207E+011   3298.01       0.105536E+007   544606.     
  2924.82        59830.0      -0.262403E+011   3293.04       0.104934E+007   539303.     
  2956.44        59830.0      -0.260597E+011   3288.05       0.104332E+007   533987.     
  2988.06        59830.0      -0.258790E+011   3283.02       0.103729E+007   528657.     
  3019.68        59830.0      -0.256980E+011   3277.97       0.103126E+007   523314.     
  3051.31        59830.0      -0.255169E+011   3272.88       0.102523E+007   517956.     
  3082.93        59830.0      -0.253357E+011   3267.77       0.101919E+007   512584.     
  3114.55        59830.0      -0.251543E+011   3262.63       0.101314E+007   507198.     
  3146.18        59830.0      -0.249726E+011   3257.45       0.100709E+007   501797.     
  3177.80        59830.0      -0.247908E+011   3252.25       0.100091E+007   496381.     
  3209.42        59830.0      -0.246089E+011   3247.01        994980.        490949.     
  3241.05        59830.0      -0.244267E+011   3241.75        988903.        485503.     
  3272.67        59830.0      -0.242443E+011   3236.45        982847.        480040.     
  3304.29        59830.0      -0.240618E+011   3231.12        976774.        474562.     
  3335.92        59830.0      -0.238790E+011   3225.75        970697.        469067.     
  3367.54        59830.0      -0.236961E+011   3220.35        964614.        463556.     
  3399.16        59830.0      -0.235129E+011   3214.92        958526.        458027.     
  3430.78        59830.0      -0.233296E+011   3209.45        952613.        452482.     
  3462.41        59830.0      -0.231460E+011   3203.95        946338.        446919.     
  3494.03        59830.0      -0.229622E+011   3198.41        940237.        441338.     
  3525.65        59830.0      -0.227781E+011   3192.83        934081.        435738.     
  3557.28        59830.0      -0.225939E+011   3187.22        928019.        430120.     
  3588.90        59830.0      -0.224094E+011   3181.57        921904.        424484.     
  3620.52        59830.0      -0.222247E+011   3175.88        915784.        418827.     
  3652.15        59830.0      -0.220397E+011   3170.15        909657.        413151.     
  3683.77        59830.0      -0.218545E+011   3164.39        903418.        407455.     
  3715.39        59830.0      -0.216690E+011   3158.58        897394.        401738.     
  3747.02        59830.0      -0.214833E+011   3152.73        891251.        396000.     
  3778.64        59830.0      -0.212973E+011   3146.84        885108.        390241.     
  3810.26        59830.0      -0.211110E+011   3140.91        878955.        384459.     
  3841.88        59830.0      -0.209245E+011   3134.94        872805.        378655.     
  3873.51        59830.0      -0.207376E+011   3128.92        866645.        372828.     
  3905.13        59830.0      -0.205505E+011   3122.85        860519.        366977.     
  3936.75        59830.0      -0.203631E+011   3116.74        854311.        361103.     
  3968.38        59830.0      -0.201754E+011   3110.59        848140.        355203.     
  4000.00        59830.0      -0.199874E+011   3104.39        841959.        349278.     
  2766.70        71795.8      -0.264329E+011   3359.57       0.115779E+007   591880.     
  2798.32        71795.8      -0.262559E+011   3354.96       0.115185E+007   586717.     
  2829.95        71795.8      -0.260788E+011   3350.31       0.114591E+007   581544.     
  2861.57        71795.8      -0.259016E+011   3345.65       0.113991E+007   576359.     
  2893.19        71795.8      -0.257243E+011   3340.96       0.113402E+007   571163.     
  2924.82        71795.8      -0.255469E+011   3336.25       0.112807E+007   565955.     
  2956.44        71795.8      -0.253693E+011   3331.51       0.112212E+007   560735.     
  2988.06        71795.8      -0.251917E+011   3326.75       0.111616E+007   555504.     
  3019.68        71795.8      -0.250139E+011   3321.97       0.111020E+007   550260.     
  3051.31        71795.8      -0.248360E+011   3317.16       0.110424E+007   545005.     
  3082.93        71795.8      -0.246579E+011   3312.32       0.109827E+007   539736.     
  3114.55        71795.8      -0.244682E+011   3306.42       0.108893E+007   532037.     
  3146.18        71795.8      -0.242901E+011   3301.54       0.108298E+007   526747.     
  3177.80        71795.8      -0.241118E+011   3296.64       0.107705E+007   521444.     
  3209.42        71795.8      -0.239334E+011   3291.71       0.107110E+007   516128.     
  3241.05        71795.8      -0.237548E+011   3286.75       0.106520E+007   510799.     
  3272.67        71795.8      -0.235761E+011   3281.77       0.105998E+007   505456.     
  3304.29        71795.8      -0.233973E+011   3276.76       0.105324E+007   500099.     
  3335.92        71795.8      -0.232183E+011   3271.72       0.104728E+007   494727.     
  3367.54        71795.8      -0.230392E+011   3266.65       0.104132E+007   489342.     
  3399.16        71795.8      -0.228600E+011   3261.55       0.103535E+007   483942.     
  3430.78        71795.8      -0.226805E+011   3256.43       0.102938E+007   478527.     
  3462.41        71795.8      -0.225010E+011   3251.27       0.102341E+007   473097.     
  3494.03        71795.8      -0.223212E+011   3246.09       0.101743E+007   467652.     
  3525.65        71795.8      -0.221414E+011   3240.87       0.101141E+007   462191.     
  3557.28        71795.8      -0.219613E+011   3235.63       0.100553E+007   456714.     
  3588.90        71795.8      -0.217811E+011   3230.35        999479.        451221.     
  3620.52        71795.8      -0.216007E+011   3225.04        993488.        445712.     
  3652.15        71795.8      -0.214201E+011   3219.70        987496.        440186.     
  3683.77        71795.8      -0.212394E+011   3214.32        981495.        434642.     
  3715.39        71795.8      -0.210585E+011   3208.92        975496.        429081.     
  3747.02        71795.8      -0.208774E+011   3203.47        969492.        423503.     
  3778.64        71795.8      -0.206961E+011   3198.00        963274.        417906.     
  3810.26        71795.8      -0.205146E+011   3192.49        957471.        412291.     
  3841.88        71795.8      -0.203329E+011   3186.94        951457.        406656.     
  3873.51        71795.8      -0.201511E+011   3181.36        944643.        401003.     
  3905.13        71795.8      -0.199690E+011   3175.74        939416.        395330.     
  3936.75        71795.8      -0.197867E+011   3170.09        933389.        389636.     
  3968.38        71795.8      -0.196042E+011   3164.40        927365.        383923.     
  4000.00        71795.8      -0.194215E+011   3158.67        921334.        378188.     
  2766.70        83761.6      -0.256711E+011   3397.89       0.123110E+007   615002.     
  2798.32        83761.6      -0.254967E+011   3393.49       0.122525E+007   609923.     
  2829.95        83761.6      -0.253221E+011   3389.07       0.121939E+007   604834.     
  2861.57        83761.6      -0.251475E+011   3384.63       0.121354E+007   599735.     
  2893.19        83761.6      -0.249728E+011   3380.17       0.120767E+007   594626.     
  2924.82        83761.6      -0.247980E+011   3375.68       0.120182E+007   589507.     
  2956.44        83761.6      -0.246232E+011   3371.18       0.119596E+007   584377.     
  2988.06        83761.6      -0.244482E+011   3366.66       0.119009E+007   579237.     
  3019.68        83761.6      -0.242732E+011   3362.11       0.118422E+007   574086.     
  3051.31        83761.6      -0.240981E+011   3357.55       0.117843E+007   568924.     
  3082.93        83761.6      -0.239229E+011   3352.96       0.117248E+007   563751.     
  3114.55        83761.6      -0.237476E+011   3348.35       0.116661E+007   558567.     
  3146.18        83761.6      -0.235722E+011   3343.71       0.116073E+007   553372.     
  3177.80        83761.6      -0.233967E+011   3339.06       0.115485E+007   548165.     
  3209.42        83761.6      -0.232211E+011   3334.38       0.114964E+007   542947.     
  3241.05        83761.6      -0.230454E+011   3329.68       0.114308E+007   537717.     
  3272.67        83761.6      -0.228697E+011   3324.95       0.113719E+007   532474.     
  3304.29        83761.6      -0.226938E+011   3320.20       0.113130E+007   527220.     
  3335.92        83761.6      -0.225178E+011   3315.43       0.112541E+007   521954.     
  3367.54        83761.6      -0.223417E+011   3310.63       0.111955E+007   516675.     
  3399.16        83761.6      -0.221555E+011   3304.95       0.111046E+007   508573.     
  3430.78        83761.6      -0.219793E+011   3300.11       0.110460E+007   503265.     
  3462.41        83761.6      -0.218030E+011   3295.25       0.109873E+007   497944.     
  3494.03        83761.6      -0.216266E+011   3290.36       0.109285E+007   492610.     
  3525.65        83761.6      -0.214501E+011   3285.44       0.108698E+007   487262.     
  3557.28        83761.6      -0.212735E+011   3280.50       0.108116E+007   481900.     
  3588.90        83761.6      -0.210967E+011   3275.53       0.107522E+007   476524.     
  3620.52        83761.6      -0.209199E+011   3270.54       0.106933E+007   471133.     
  3652.15        83761.6      -0.207429E+011   3265.52       0.106347E+007   465728.     
  3683.77        83761.6      -0.205658E+011   3260.47       0.105756E+007   460308.     
  3715.39        83761.6      -0.203885E+011   3255.39       0.105167E+007   454872.     
  3747.02        83761.6      -0.202112E+011   3250.28       0.104578E+007   449421.     
  3778.64        83761.6      -0.200337E+011   3245.15       0.104144E+007   443954.     
  3810.26        83761.6      -0.198560E+011   3239.99       0.103398E+007   438471.     
  3841.88        83761.6      -0.196782E+011   3234.79       0.102808E+007   432971.     
  3873.51        83761.6      -0.195003E+011   3229.57       0.102218E+007   427455.     
  3905.13        83761.6      -0.193223E+011   3224.31       0.101628E+007   421921.     
  3936.75        83761.6      -0.191441E+011   3219.03       0.101037E+007   416371.     
  3968.38        83761.6      -0.189657E+011   3213.71       0.100446E+007   410802.     
  4000.00        83761.6      -0.187872E+011   3208.36        998548.        405215.     
  2766.70        95727.4      -0.248745E+011   3434.15       0.130319E+007   637343.     
  2798.32        95727.4      -0.247022E+011   3429.95       0.129741E+007   632337.     
  2829.95        95727.4      -0.245298E+011   3425.72       0.129163E+007   627322.     
  2861.57        95727.4      -0.243574E+011   3421.47       0.128585E+007   622298.     
  2893.19        95727.4      -0.241850E+011   3417.21       0.128007E+007   617265.     
  2924.82        95727.4      -0.240124E+011   3412.93       0.127428E+007   612223.     
  2956.44        95727.4      -0.238399E+011   3408.63       0.126851E+007   607171.     
  2988.06        95727.4      -0.236672E+011   3404.31       0.126272E+007   602110.     
  3019.68        95727.4      -0.234945E+011   3399.98       0.125693E+007   597039.     
  3051.31        95727.4      -0.233218E+011   3395.62       0.125114E+007   591959.     
  3082.93        95727.4      -0.231489E+011   3391.24       0.124535E+007   586868.     
  3114.55        95727.4      -0.229761E+011   3386.85       0.123955E+007   581768.     
  3146.18        95727.4      -0.228031E+011   3382.44       0.123376E+007   576658.     
  3177.80        95727.4      -0.226301E+011   3378.00       0.122796E+007   571537.     
  3209.42        95727.4      -0.224570E+011   3373.55       0.122216E+007   566407.     
  3241.05        95727.4      -0.222839E+011   3369.07       0.121636E+007   561265.     
  3272.67        95727.4      -0.221106E+011   3364.58       0.121056E+007   556113.     
  3304.29        95727.4      -0.219374E+011   3360.06       0.120475E+007   550951.     
  3335.92        95727.4      -0.217640E+011   3355.52       0.119895E+007   545777.     
  3367.54        95727.4      -0.215906E+011   3350.97       0.119314E+007   540592.     
  3399.16        95727.4      -0.214171E+011   3346.39       0.118733E+007   535396.     
  3430.78        95727.4      -0.212435E+011   3341.78       0.118152E+007   530189.     
  3462.41        95727.4      -0.210698E+011   3337.16       0.117571E+007   524970.     
  3494.03        95727.4      -0.208961E+011   3332.52       0.116989E+007   519740.     
  3525.65        95727.4      -0.207223E+011   3327.85       0.116407E+007   514497.     
  3557.28        95727.4      -0.205484E+011   3323.16       0.115826E+007   509243.     
  3588.90        95727.4      -0.203744E+011   3318.44       0.115244E+007   503976.     
  3620.52        95727.4      -0.201912E+011   3313.00       0.114360E+007   495314.     
  3652.15        95727.4      -0.200172E+011   3308.25       0.113780E+007   490006.     
  3683.77        95727.4      -0.198431E+011   3303.47       0.113201E+007   484686.     
  3715.39        95727.4      -0.196689E+011   3298.67       0.112621E+007   479351.     
  3747.02        95727.4      -0.194946E+011   3293.85       0.112041E+007   474002.     
  3778.64        95727.4      -0.193202E+011   3289.00       0.111461E+007   468639.     
  3810.26        95727.4      -0.191457E+011   3284.13       0.110881E+007   463261.     
  3841.88        95727.4      -0.189711E+011   3279.23       0.110301E+007   457868.     
  3873.51        95727.4      -0.187964E+011   3274.30       0.109720E+007   452460.     
  3905.13        95727.4      -0.186217E+011   3269.35       0.109139E+007   447037.     
  3936.75        95727.4      -0.184468E+011   3264.38       0.108559E+007   441597.     
  3968.38        95727.4      -0.182718E+011   3259.37       0.107978E+007   436142.     
  4000.00        95727.4      -0.180967E+011   3254.34       0.107396E+007   430669.     
  2766.70        107693.      -0.242547E+011   3483.59       0.121678E+007   551556.     
  2798.32        107693.      -0.241022E+011   3480.96       0.120845E+007   547655.     
  2829.95        107693.      -0.237062E+011   3460.54       0.136277E+007   649106.     
  2861.57        107693.      -0.235357E+011   3456.46       0.135705E+007   644149.     
  2893.19        107693.      -0.233652E+011   3452.38       0.135134E+007   639183.     
  2924.82        107693.      -0.231946E+011   3448.27       0.134563E+007   634208.     
  2956.44        107693.      -0.230240E+011   3444.15       0.134033E+007   629225.     
  2988.06        107693.      -0.228533E+011   3440.01       0.133420E+007   624234.     
  3019.68        107693.      -0.226826E+011   3435.86       0.132848E+007   619233.     
  3051.31        107693.      -0.225119E+011   3431.69       0.132276E+007   614224.     
  3082.93        107693.      -0.223411E+011   3427.50       0.131704E+007   609206.     
  3114.55        107693.      -0.221702E+011   3423.30       0.131131E+007   604179.     
  3146.18        107693.      -0.219994E+011   3419.07       0.130559E+007   599144.     
  3177.80        107693.      -0.218285E+011   3414.83       0.129987E+007   594098.     
  3209.42        107693.      -0.216575E+011   3410.57       0.129418E+007   589044.     
  3241.05        107693.      -0.214865E+011   3406.30       0.128841E+007   583980.     
  3272.67        107693.      -0.213155E+011   3402.00       0.128268E+007   578907.     
  3304.29        107693.      -0.211444E+011   3397.69       0.127665E+007   573824.     
  3335.92        107693.      -0.209732E+011   3393.36       0.127196E+007   568731.     
  3367.54        107693.      -0.208021E+011   3389.01       0.126549E+007   563628.     
  3399.16        107693.      -0.206308E+011   3384.64       0.125974E+007   558515.     
  3430.78        107693.      -0.204596E+011   3380.25       0.125402E+007   553392.     
  3462.41        107693.      -0.202882E+011   3375.85       0.124828E+007   548259.     
  3494.03        107693.      -0.201168E+011   3371.42       0.124254E+007   543116.     
  3525.65        107693.      -0.199454E+011   3366.97       0.123680E+007   537961.     
  3557.28        107693.      -0.197739E+011   3362.51       0.123106E+007   532796.     
  3588.90        107693.      -0.196024E+011   3358.02       0.122532E+007   527620.     
  3620.52        107693.      -0.194308E+011   3353.51       0.121958E+007   522433.     
  3652.15        107693.      -0.192591E+011   3348.99       0.121384E+007   517235.     
  3683.77        107693.      -0.190874E+011   3344.44       0.120809E+007   512026.     
  3715.39        107693.      -0.189157E+011   3339.87       0.120256E+007   506804.     
  3747.02        107693.      -0.187439E+011   3335.28       0.119660E+007   501572.     
  3778.64        107693.      -0.185634E+011   3330.08       0.118791E+007   492141.     
  3810.26        107693.      -0.183915E+011   3325.46       0.118219E+007   486845.     
  3841.88        107693.      -0.182196E+011   3320.81       0.117647E+007   481535.     
  3873.51        107693.      -0.180476E+011   3316.14       0.117233E+007   476211.     
  3905.13        107693.      -0.178756E+011   3311.45       0.116502E+007   470871.     
  3936.75        107693.      -0.177035E+011   3306.74       0.115930E+007   465516.     
  3968.38        107693.      -0.175313E+011   3302.00       0.115357E+007   460146.     
  4000.00        107693.      -0.173590E+011   3297.24       0.114784E+007   454759.     
  2766.70        119659.      -0.233689E+011   3518.26       0.130280E+007   565824.     
  2798.32        119659.      -0.232182E+011   3515.85       0.129502E+007   561929.     
  2829.95        119659.      -0.230674E+011   3513.43       0.128721E+007   558034.     
  2861.57        119659.      -0.229166E+011   3510.98       0.127937E+007   554139.     
  2893.19        119659.      -0.227656E+011   3508.51       0.127149E+007   550244.     
  2924.82        119659.      -0.226146E+011   3506.03       0.126358E+007   546350.     
  2956.44        119659.      -0.224634E+011   3503.52       0.125564E+007   542455.     
  2988.06        119659.      -0.221164E+011   3483.53       0.134733E+007   605600.     
  3019.68        119659.      -0.218412E+011   3470.01       0.139899E+007   640759.     
  3051.31        119659.      -0.216722E+011   3466.00       0.139334E+007   635813.     
  3082.93        119659.      -0.215032E+011   3461.98       0.138768E+007   630859.     
  3114.55        119659.      -0.213342E+011   3457.94       0.138202E+007   625897.     
  3146.18        119659.      -0.211651E+011   3453.89       0.137636E+007   620927.     
  3177.80        119659.      -0.209960E+011   3449.82       0.137069E+007   615949.     
  3209.42        119659.      -0.208269E+011   3445.74       0.136503E+007   610962.     
  3241.05        119659.      -0.206577E+011   3441.63       0.135938E+007   605966.     
  3272.67        119659.      -0.204886E+011   3437.52       0.135370E+007   600962.     
  3304.29        119659.      -0.203194E+011   3433.38       0.134804E+007   595949.     
  3335.92        119659.      -0.201501E+011   3429.23       0.134232E+007   590927.     
  3367.54        119659.      -0.199809E+011   3425.07       0.133670E+007   585896.     
  3399.16        119659.      -0.198116E+011   3420.88       0.133104E+007   580857.     
  3430.78        119659.      -0.196423E+011   3416.68       0.132537E+007   575808.     
  3462.41        119659.      -0.194729E+011   3412.46       0.131970E+007   570749.     
  3494.03        119659.      -0.193036E+011   3408.23       0.131403E+007   565682.     
  3525.65        119659.      -0.191342E+011   3403.98       0.130836E+007   560604.     
  3557.28        119659.      -0.189647E+011   3399.71       0.130268E+007   555517.     
  3588.90        119659.      -0.187953E+011   3395.42       0.129684E+007   550421.     
  3620.52        119659.      -0.186258E+011   3391.11       0.129134E+007   545314.     
  3652.15        119659.      -0.184562E+011   3386.79       0.128566E+007   540198.     
  3683.77        119659.      -0.182866E+011   3382.45       0.127999E+007   535071.     
  3715.39        119659.      -0.181170E+011   3378.09       0.127431E+007   529934.     
  3747.02        119659.      -0.179474E+011   3373.71       0.126864E+007   524786.     
  3778.64        119659.      -0.177777E+011   3369.31       0.126240E+007   519628.     
  3810.26        119659.      -0.176080E+011   3364.89       0.125711E+007   514458.     
  3841.88        119659.      -0.174383E+011   3360.45       0.125161E+007   509278.     
  3873.51        119659.      -0.172685E+011   3356.00       0.124582E+007   504087.     
  3905.13        119659.      -0.170904E+011   3351.04       0.123736E+007   493556.     
  3936.75        119659.      -0.169206E+011   3346.55       0.123170E+007   488259.     
  3968.38        119659.      -0.167508E+011   3342.04       0.122605E+007   482946.     
  4000.00        119659.      -0.165809E+011   3337.52       0.122040E+007   477615.     
  2766.70        131625.      -0.224520E+011   3550.88       0.138668E+007   579560.     
  2798.32        131625.      -0.223026E+011   3548.66       0.137918E+007   575663.     
  2829.95        131625.      -0.221532E+011   3546.43       0.137165E+007   571766.     
  2861.57        131625.      -0.220037E+011   3544.18       0.136385E+007   567869.     
  2893.19        131625.      -0.218542E+011   3541.92       0.135651E+007   563973.     
  2924.82        131625.      -0.217046E+011   3539.64       0.134890E+007   560078.     
  2956.44        131625.      -0.215550E+011   3537.34       0.134126E+007   556184.     
  2988.06        131625.      -0.214053E+011   3535.02       0.133359E+007   552290.     
  3019.68        131625.      -0.212556E+011   3532.68       0.132588E+007   548397.     
  3051.31        131625.      -0.211058E+011   3530.33       0.131816E+007   544504.     
  3082.93        131625.      -0.209559E+011   3527.95       0.131039E+007   540611.     
  3114.55        131625.      -0.208060E+011   3525.56       0.130260E+007   536719.     
  3146.18        131625.      -0.206560E+011   3523.15       0.129477E+007   532827.     
  3177.80        131625.      -0.205060E+011   3520.72       0.128691E+007   528936.     
  3209.42        131625.      -0.203558E+011   3518.26       0.127901E+007   525045.     
  3241.05        131625.      -0.198011E+011   3475.31       0.142935E+007   627308.     
  3272.67        131625.      -0.196335E+011   3471.35       0.142379E+007   622365.     
  3304.29        131625.      -0.194659E+011   3467.37       0.141813E+007   617414.     
  3335.92        131625.      -0.192984E+011   3463.38       0.141253E+007   612456.     
  3367.54        131625.      -0.191308E+011   3459.38       0.140691E+007   607489.     
  3399.16        131625.      -0.189632E+011   3455.36       0.140131E+007   602513.     
  3430.78        131625.      -0.187956E+011   3451.32       0.139570E+007   597530.     
  3462.41        131625.      -0.186279E+011   3447.27       0.139023E+007   592538.     
  3494.03        131625.      -0.184603E+011   3443.21       0.138448E+007   587537.     
  3525.65        131625.      -0.182926E+011   3439.13       0.137886E+007   582528.     
  3557.28        131625.      -0.181249E+011   3435.03       0.137325E+007   577510.     
  3588.90        131625.      -0.179573E+011   3430.92       0.136764E+007   572483.     
  3620.52        131625.      -0.177896E+011   3426.79       0.136204E+007   567448.     
  3652.15        131625.      -0.176218E+011   3422.64       0.135641E+007   562403.     
  3683.77        131625.      -0.174541E+011   3418.48       0.134968E+007   557349.     
  3715.39        131625.      -0.172863E+011   3414.31       0.134519E+007   552285.     
  3747.02        131625.      -0.171186E+011   3410.11       0.133957E+007   547212.     
  3778.64        131625.      -0.169508E+011   3405.90       0.133396E+007   542130.     
  3810.26        131625.      -0.167830E+011   3401.67       0.132834E+007   537038.     
  3841.88        131625.      -0.166151E+011   3397.43       0.132273E+007   531935.     
  3873.51        131625.      -0.164473E+011   3393.16       0.131712E+007   526823.     
  3905.13        131625.      -0.162794E+011   3388.88       0.131001E+007   521701.     
  3936.75        131625.      -0.161115E+011   3384.58       0.130589E+007   516569.     
  3968.38        131625.      -0.159436E+011   3380.27       0.130038E+007   511426.     
  4000.00        131625.      -0.157676E+011   3375.55       0.129178E+007   499302.     
  2766.70        143591.      -0.215589E+011   3587.53       0.147316E+007   596647.     
  2798.32        143591.      -0.214101E+011   3585.46       0.146586E+007   592711.     
  2829.95        143591.      -0.212614E+011   3583.38       0.145852E+007   588775.     
  2861.57        143591.      -0.211126E+011   3581.28       0.145116E+007   584841.     
  2893.19        143591.      -0.209637E+011   3579.18       0.144378E+007   580907.     
  2924.82        143591.      -0.208149E+011   3577.05       0.143637E+007   576975.     
  2956.44        143591.      -0.206660E+011   3574.91       0.142894E+007   573043.     
  2988.06        143591.      -0.205170E+011   3572.76       0.142148E+007   569112.     
  3019.68        143591.      -0.203205E+011   3564.94       0.140978E+007   561620.     
  3051.31        143591.      -0.201719E+011   3562.77       0.140232E+007   557722.     
  3082.93        143591.      -0.200233E+011   3560.58       0.139484E+007   553824.     
  3114.55        143591.      -0.198746E+011   3558.38       0.138732E+007   549928.     
  3146.18        143591.      -0.197259E+011   3556.16       0.137978E+007   546032.     
  3177.80        143591.      -0.195772E+011   3553.93       0.137222E+007   542137.     
  3209.42        143591.      -0.194284E+011   3551.68       0.136462E+007   538242.     
  3241.05        143591.      -0.192796E+011   3549.41       0.135699E+007   534349.     
  3272.67        143591.      -0.191307E+011   3547.12       0.134934E+007   530456.     
  3304.29        143591.      -0.189818E+011   3544.82       0.134167E+007   526564.     
  3335.92        143591.      -0.188329E+011   3542.50       0.133394E+007   522672.     
  3367.54        143591.      -0.186839E+011   3540.16       0.132617E+007   518781.     
  3399.16        143591.      -0.185349E+011   3537.80       0.131842E+007   514890.     
  3430.78        143591.      -0.183858E+011   3535.42       0.131067E+007   511001.     
  3462.41        143591.      -0.182366E+011   3533.03       0.130277E+007   507111.     
  3494.03        143591.      -0.180081E+011   3522.02       0.131900E+007   518702.     
  3525.65        143591.      -0.174241E+011   3472.64       0.144844E+007   603815.     
  3557.28        143591.      -0.172580E+011   3468.70       0.144288E+007   598859.     
  3588.90        143591.      -0.170918E+011   3464.75       0.143732E+007   593894.     
  3620.52        143591.      -0.169257E+011   3460.77       0.143176E+007   588921.     
  3652.15        143591.      -0.167595E+011   3456.79       0.142619E+007   583940.     
  3683.77        143591.      -0.165934E+011   3452.79       0.142064E+007   578951.     
  3715.39        143591.      -0.164272E+011   3448.77       0.141509E+007   573952.     
  3747.02        143591.      -0.162611E+011   3444.74       0.140953E+007   568946.     
  3778.64        143591.      -0.160949E+011   3440.70       0.140397E+007   563930.     
  3810.26        143591.      -0.159288E+011   3436.64       0.139841E+007   558906.     
  3841.88        143591.      -0.157626E+011   3432.56       0.139285E+007   553873.     
  3873.51        143591.      -0.155964E+011   3428.47       0.138729E+007   548831.     
  3905.13        143591.      -0.154303E+011   3424.36       0.138234E+007   543779.     
  3936.75        143591.      -0.152641E+011   3420.24       0.137617E+007   538719.     
  3968.38        143591.      -0.150979E+011   3416.10       0.137062E+007   533648.     
  4000.00        143591.      -0.149317E+011   3411.95       0.136668E+007   528569.     
  2766.70        155556.      -0.205919E+011   3616.89       0.155350E+007   609629.     
  2798.32        155556.      -0.204439E+011   3614.96       0.154640E+007   605680.     
  2829.95        155556.      -0.202960E+011   3613.03       0.153926E+007   601733.     
  2861.57        155556.      -0.201480E+011   3611.08       0.153213E+007   597787.     
  2893.19        155556.      -0.200000E+011   3609.11       0.152498E+007   593841.     
  2924.82        155556.      -0.198520E+011   3607.14       0.151778E+007   589897.     
  2956.44        155556.      -0.197039E+011   3605.15       0.151057E+007   585954.     
  2988.06        155556.      -0.195559E+011   3603.15       0.150334E+007   582012.     
  3019.68        155556.      -0.194078E+011   3601.14       0.149609E+007   578071.     
  3051.31        155556.      -0.192597E+011   3599.11       0.148882E+007   574131.     
  3082.93        155556.      -0.191116E+011   3597.07       0.148152E+007   570192.     
  3114.55        155556.      -0.189635E+011   3595.02       0.147420E+007   566254.     
  3146.18        155556.      -0.188154E+011   3592.95       0.146685E+007   562317.     
  3177.80        155556.      -0.186672E+011   3590.87       0.145949E+007   558381.     
  3209.42        155556.      -0.185191E+011   3588.77       0.145209E+007   554446.     
  3241.05        155556.      -0.183709E+011   3586.66       0.144468E+007   550512.     
  3272.67        155556.      -0.182227E+011   3584.54       0.143723E+007   546578.     
  3304.29        155556.      -0.180744E+011   3582.40       0.142977E+007   542646.     
  3335.92        155556.      -0.179262E+011   3580.24       0.142227E+007   538714.     
  3367.54        155556.      -0.177779E+011   3578.07       0.141475E+007   534783.     
  3399.16        155556.      -0.175863E+011   3570.42       0.140340E+007   527570.     
  3430.78        155556.      -0.174384E+011   3568.24       0.139585E+007   523673.     
  3462.41        155556.      -0.172904E+011   3566.03       0.138833E+007   519777.     
  3494.03        155556.      -0.171425E+011   3563.82       0.138075E+007   515882.     
  3525.65        155556.      -0.169945E+011   3561.58       0.137314E+007   511987.     
  3557.28        155556.      -0.168464E+011   3559.33       0.136551E+007   508094.     
  3588.90        155556.      -0.166984E+011   3557.06       0.135785E+007   504201.     
  3620.52        155556.      -0.165503E+011   3554.77       0.135015E+007   500309.     
  3652.15        155556.      -0.164022E+011   3552.47       0.134243E+007   496418.     
  3683.77        155556.      -0.162540E+011   3550.14       0.133467E+007   492527.     
  3715.39        155556.      -0.161058E+011   3547.80       0.132689E+007   488637.     
  3747.02        155556.      -0.159576E+011   3545.44       0.131907E+007   484747.     
  3778.64        155556.      -0.158093E+011   3543.06       0.131122E+007   480858.     
  3810.26        155556.      -0.151095E+011   3477.07       0.145029E+007   568805.     
  3841.88        155556.      -0.148838E+011   3466.07       0.146209E+007   575173.     
  3873.51        155556.      -0.147191E+011   3462.14       0.145656E+007   570193.     
  3905.13        155556.      -0.145544E+011   3458.18       0.145105E+007   565205.     
  3936.75        155556.      -0.143897E+011   3454.22       0.144554E+007   560208.     
  3968.38        155556.      -0.142250E+011   3450.24       0.144003E+007   555202.     
  4000.00        155556.      -0.140603E+011   3446.24       0.143452E+007   550188.     
  2766.70        167522.      -0.196040E+011   3644.92       0.163232E+007   622262.     
  2798.32        167522.      -0.194567E+011   3643.12       0.162540E+007   618298.     
  2829.95        167522.      -0.193093E+011   3641.31       0.161846E+007   614335.     
  2861.57        167522.      -0.191619E+011   3639.48       0.161151E+007   610373.     
  2893.19        167522.      -0.190145E+011   3637.65       0.160453E+007   606413.     
  2924.82        167522.      -0.188672E+011   3635.81       0.159754E+007   602453.     
  2956.44        167522.      -0.187198E+011   3633.95       0.159053E+007   598495.     
  2988.06        167522.      -0.185724E+011   3632.09       0.158350E+007   594538.     
  3019.68        167522.      -0.184250E+011   3630.21       0.157645E+007   590582.     
  3051.31        167522.      -0.182776E+011   3628.32       0.156938E+007   586628.     
  3082.93        167522.      -0.181302E+011   3626.42       0.156229E+007   582675.     
  3114.55        167522.      -0.179828E+011   3624.51       0.155517E+007   578722.     
  3146.18        167522.      -0.178354E+011   3622.58       0.154805E+007   574771.     
  3177.80        167522.      -0.176880E+011   3620.65       0.154090E+007   570821.     
  3209.42        167522.      -0.175406E+011   3618.70       0.153372E+007   566873.     
  3241.05        167522.      -0.173932E+011   3616.74       0.152653E+007   562925.     
  3272.67        167522.      -0.172458E+011   3614.76       0.151932E+007   558979.     
  3304.29        167522.      -0.170983E+011   3612.78       0.151208E+007   555033.     
  3335.92        167522.      -0.169509E+011   3610.78       0.150483E+007   551089.     
  3367.54        167522.      -0.168035E+011   3608.77       0.149754E+007   547145.     
  3399.16        167522.      -0.166560E+011   3606.74       0.149024E+007   543203.     
  3430.78        167522.      -0.165086E+011   3604.70       0.148291E+007   539262.     
  3462.41        167522.      -0.163611E+011   3602.65       0.147556E+007   535322.     
  3494.03        167522.      -0.162136E+011   3600.58       0.146818E+007   531382.     
  3525.65        167522.      -0.160661E+011   3598.50       0.146078E+007   527444.     
  3557.28        167522.      -0.159186E+011   3596.40       0.145336E+007   523506.     
  3588.90        167522.      -0.157711E+011   3594.29       0.144591E+007   519570.     
  3620.52        167522.      -0.156236E+011   3592.16       0.143844E+007   515634.     
  3652.15        167522.      -0.154760E+011   3590.02       0.143094E+007   511699.     
  3683.77        167522.      -0.153285E+011   3587.87       0.142341E+007   507765.     
  3715.39        167522.      -0.151809E+011   3585.69       0.141586E+007   503831.     
  3747.02        167522.      -0.150333E+011   3583.51       0.140828E+007   499898.     
  3778.64        167522.      -0.148468E+011   3576.05       0.139729E+007   492974.     
  3810.26        167522.      -0.146996E+011   3573.85       0.138971E+007   489077.     
  3841.88        167522.      -0.145524E+011   3571.63       0.138210E+007   485180.     
  3873.51        167522.      -0.144052E+011   3569.39       0.137446E+007   481285.     
  3905.13        167522.      -0.142579E+011   3567.14       0.136679E+007   477390.     
  3936.75        167522.      -0.141106E+011   3564.87       0.135909E+007   473496.     
  3968.38        167522.      -0.139633E+011   3562.58       0.135136E+007   469603.     
  4000.00        167522.      -0.138160E+011   3560.28       0.134360E+007   465710.     
  2766.70        179488.      -0.185975E+011   3671.77       0.170979E+007   634587.     
  2798.32        179488.      -0.184505E+011   3670.08       0.170303E+007   630604.     
  2829.95        179488.      -0.183036E+011   3668.38       0.169626E+007   626623.     
  2861.57        179488.      -0.181567E+011   3666.67       0.168947E+007   622642.     
  2893.19        179488.      -0.180098E+011   3664.95       0.168266E+007   618663.     
  2924.82        179488.      -0.178629E+011   3663.22       0.167584E+007   614686.     
  2956.44        179488.      -0.177159E+011   3661.48       0.166900E+007   610710.     
  2988.06        179488.      -0.175690E+011   3659.74       0.166215E+007   606735.     
  3019.68        179488.      -0.174222E+011   3657.98       0.165527E+007   602761.     
  3051.31        179488.      -0.172753E+011   3656.21       0.164839E+007   598789.     
  3082.93        179488.      -0.171284E+011   3654.43       0.164148E+007   594818.     
  3114.55        179488.      -0.169815E+011   3652.64       0.163456E+007   590848.     
  3146.18        179488.      -0.168347E+011   3650.85       0.162762E+007   586879.     
  3177.80        179488.      -0.166878E+011   3649.04       0.162066E+007   582912.     
  3209.42        179488.      -0.165410E+011   3647.22       0.161368E+007   578946.     
  3241.05        179488.      -0.163941E+011   3645.39       0.160670E+007   574982.     
  3272.67        179488.      -0.162473E+011   3643.54       0.159967E+007   571018.     
  3304.29        179488.      -0.161004E+011   3641.69       0.159263E+007   567056.     
  3335.92        179488.      -0.159536E+011   3639.83       0.158558E+007   563095.     
  3367.54        179488.      -0.158068E+011   3637.95       0.157850E+007   559135.     
  3399.16        179488.      -0.156600E+011   3636.07       0.157141E+007   555177.     
  3430.78        179488.      -0.155132E+011   3634.17       0.156430E+007   551219.     
  3462.41        179488.      -0.153664E+011   3632.26       0.155717E+007   547263.     
  3494.03        179488.      -0.152196E+011   3630.34       0.155001E+007   543308.     
  3525.65        179488.      -0.150728E+011   3628.40       0.154283E+007   539354.     
  3557.28        179488.      -0.149260E+011   3626.46       0.153564E+007   535401.     
  3588.90        179488.      -0.147792E+011   3624.50       0.152842E+007   531450.     
  3620.52        179488.      -0.146324E+011   3622.52       0.152118E+007   527499.     
  3652.15        179488.      -0.144856E+011   3620.54       0.151391E+007   523549.     
  3683.77        179488.      -0.143388E+011   3618.54       0.150663E+007   519601.     
  3715.39        179488.      -0.141920E+011   3616.53       0.149932E+007   515653.     
  3747.02        179488.      -0.140452E+011   3614.51       0.149234E+007   511707.     
  3778.64        179488.      -0.138984E+011   3612.47       0.148464E+007   507761.     
  3810.26        179488.      -0.137516E+011   3610.42       0.147726E+007   503816.     
  3841.88        179488.      -0.136049E+011   3608.35       0.146986E+007   499872.     
  3873.51        179488.      -0.134581E+011   3606.27       0.146243E+007   495929.     
  3905.13        179488.      -0.133113E+011   3604.17       0.145498E+007   491987.     
  3936.75        179488.      -0.131644E+011   3602.06       0.144746E+007   488045.     
  3968.38        179488.      -0.130176E+011   3599.94       0.143999E+007   484104.     
  4000.00        179488.      -0.128708E+011   3597.80       0.143250E+007   480164.     
  2766.70        191454.      -0.175741E+011   3697.57       0.178605E+007   646635.     
  2798.32        191454.      -0.174274E+011   3695.97       0.177944E+007   642631.     
  2829.95        191454.      -0.172808E+011   3694.37       0.177282E+007   638629.     
  2861.57        191454.      -0.171342E+011   3692.76       0.176618E+007   634628.     
  2893.19        191454.      -0.169876E+011   3691.15       0.175952E+007   630628.     
  2924.82        191454.      -0.168410E+011   3689.52       0.175286E+007   626630.     
  2956.44        191454.      -0.166945E+011   3687.88       0.174617E+007   622633.     
  2988.06        191454.      -0.165479E+011   3686.24       0.173947E+007   618638.     
  3019.68        191454.      -0.164014E+011   3684.59       0.173276E+007   614644.     
  3051.31        191454.      -0.162549E+011   3682.93       0.172603E+007   610651.     
  3082.93        191454.      -0.161084E+011   3681.26       0.171928E+007   606660.     
  3114.55        191454.      -0.159619E+011   3679.58       0.171253E+007   602670.     
  3146.18        191454.      -0.158154E+011   3677.89       0.170576E+007   598681.     
  3177.80        191454.      -0.156689E+011   3676.20       0.169896E+007   594694.     
  3209.42        191454.      -0.155225E+011   3674.49       0.169216E+007   590708.     
  3241.05        191454.      -0.153760E+011   3672.77       0.168533E+007   586723.     
  3272.67        191454.      -0.152296E+011   3671.05       0.167849E+007   582740.     
  3304.29        191454.      -0.150832E+011   3669.31       0.167164E+007   578758.     
  3335.92        191454.      -0.149368E+011   3667.57       0.166476E+007   574778.     
  3367.54        191454.      -0.147905E+011   3665.82       0.165787E+007   570798.     
  3399.16        191454.      -0.146441E+011   3664.05       0.165096E+007   566821.     
  3430.78        191454.      -0.144977E+011   3662.28       0.164404E+007   562844.     
  3462.41        191454.      -0.143514E+011   3660.49       0.163710E+007   558868.     
  3494.03        191454.      -0.142051E+011   3658.70       0.163013E+007   554894.     
  3525.65        191454.      -0.140588E+011   3656.89       0.162316E+007   550921.     
  3557.28        191454.      -0.139125E+011   3655.07       0.161616E+007   546950.     
  3588.90        191454.      -0.137662E+011   3653.25       0.160915E+007   542979.     
  3620.52        191454.      -0.136200E+011   3651.41       0.160210E+007   539010.     
  3652.15        191454.      -0.134737E+011   3649.56       0.159505E+007   535042.     
  3683.77        191454.      -0.133275E+011   3647.70       0.158797E+007   531075.     
  3715.39        191454.      -0.131813E+011   3645.83       0.158088E+007   527109.     
  3747.02        191454.      -0.130351E+011   3643.94       0.157377E+007   523145.     
  3778.64        191454.      -0.128889E+011   3642.05       0.156663E+007   519181.     
  3810.26        191454.      -0.127427E+011   3640.14       0.155948E+007   515219.     
  3841.88        191454.      -0.125965E+011   3638.22       0.155230E+007   511257.     
  3873.51        191454.      -0.124503E+011   3636.29       0.154510E+007   507297.     
  3905.13        191454.      -0.123042E+011   3634.35       0.153788E+007   503337.     
  3936.75        191454.      -0.121580E+011   3632.39       0.153107E+007   499379.     
  3968.38        191454.      -0.120095E+011   3630.98       0.152444E+007   495871.     
  4000.00        191454.      -0.117155E+011   3661.89       0.158100E+007   518543.     
  2766.70        203420.      -0.166164E+011   3737.02       0.188088E+007   671795.     
  2798.32        203420.      -0.164590E+011   3733.67       0.187219E+007   666199.     
  2829.95        203420.      -0.163021E+011   3730.36       0.186341E+007   660621.     
  2861.57        203420.      -0.161458E+011   3727.11       0.185465E+007   655064.     
  2893.19        203420.      -0.159899E+011   3723.90       0.184590E+007   649529.     
  2924.82        203420.      -0.158346E+011   3720.75       0.183717E+007   644022.     
  2956.44        203420.      -0.156797E+011   3717.64       0.182846E+007   638536.     
  2988.06        203420.      -0.155254E+011   3714.58       0.181977E+007   633079.     
  3019.68        203420.      -0.153715E+011   3711.57       0.181111E+007   627652.     
  3051.31        203420.      -0.152182E+011   3708.61       0.180247E+007   622257.     
  3082.93        203420.      -0.150719E+011   3707.03       0.179586E+007   618233.     
  3114.55        203420.      -0.149256E+011   3705.45       0.178925E+007   614221.     
  3146.18        203420.      -0.147794E+011   3703.86       0.178262E+007   610210.     
  3177.80        203420.      -0.146332E+011   3702.26       0.177598E+007   606200.     
  3209.42        203420.      -0.144870E+011   3700.66       0.176933E+007   602192.     
  3241.05        203420.      -0.143409E+011   3699.05       0.176266E+007   598186.     
  3272.67        203420.      -0.141948E+011   3697.42       0.175598E+007   594180.     
  3304.29        203420.      -0.140487E+011   3695.79       0.174928E+007   590176.     
  3335.92        203420.      -0.139026E+011   3694.15       0.174257E+007   586174.     
  3367.54        203420.      -0.137565E+011   3692.51       0.173584E+007   582172.     
  3399.16        203420.      -0.136105E+011   3690.85       0.172909E+007   578172.     
  3430.78        203420.      -0.134644E+011   3689.18       0.172234E+007   574174.     
  3462.41        203420.      -0.133184E+011   3687.51       0.171556E+007   570177.     
  3494.03        203420.      -0.131725E+011   3685.83       0.170877E+007   566181.     
  3525.65        203420.      -0.130265E+011   3684.13       0.170196E+007   562186.     
  3557.28        203420.      -0.128806E+011   3682.43       0.169514E+007   558193.     
  3588.90        203420.      -0.127346E+011   3680.72       0.168830E+007   554201.     
  3620.52        203420.      -0.125887E+011   3679.00       0.168144E+007   550210.     
  3652.15        203420.      -0.124429E+011   3677.27       0.167457E+007   546221.     
  3683.77        203420.      -0.122970E+011   3675.53       0.166768E+007   542233.     
  3715.39        203420.      -0.121512E+011   3673.78       0.166077E+007   538246.     
  3747.02        203420.      -0.120054E+011   3672.02       0.165385E+007   534260.     
  3778.64        203420.      -0.118285E+011   3686.50       0.167431E+007   544185.     
  3810.26        203420.      -0.116184E+011   3712.49       0.171592E+007   564368.     
  3841.88        203420.      -0.114020E+011   3734.94       0.175348E+007   581943.     
  3873.51        203420.      -0.111798E+011   3754.39       0.178766E+007   597239.     
  3905.13        203420.      -0.109526E+011   3771.25       0.181880E+007   610525.     
  3936.75        203420.      -0.107206E+011   3785.89       0.184746E+007   622022.     
  3968.38        203420.      -0.104842E+011   3798.58       0.187379E+007   631909.     
  4000.00        203420.      -0.102437E+011   3809.56       0.189818E+007   640341.     
  2766.70        215385.      -0.177232E+011   4030.00       0.239609E+007  0.103174E+007
  2798.32        215385.      -0.175242E+011   4024.53       0.238498E+007  0.102190E+007
  2829.95        215385.      -0.173284E+011   4019.33       0.237440E+007  0.101266E+007
  2861.57        215385.      -0.171354E+011   4014.35       0.236430E+007  0.100393E+007
  2893.19        215385.      -0.169448E+011   4009.58       0.235461E+007   995646.     
  2924.82        215385.      -0.149739E+011   3780.30       0.195833E+007   691162.     
  2956.44        215385.      -0.148171E+011   3777.31       0.195048E+007   685983.     
  2988.06        215385.      -0.146607E+011   3774.34       0.194261E+007   680813.     
  3019.68        215385.      -0.145047E+011   3771.40       0.193475E+007   675654.     
  3051.31        215385.      -0.143490E+011   3768.49       0.192689E+007   670508.     
  3082.93        215385.      -0.141937E+011   3765.62       0.191903E+007   665375.     
  3114.55        215385.      -0.140388E+011   3762.77       0.191117E+007   660257.     
  3146.18        215385.      -0.138842E+011   3759.96       0.190332E+007   655156.     
  3177.80        215385.      -0.137300E+011   3757.18       0.189547E+007   650072.     
  3209.42        215385.      -0.135762E+011   3754.43       0.188763E+007   645007.     
  3241.05        215385.      -0.134227E+011   3751.71       0.187981E+007   639962.     
  3272.67        215385.      -0.132695E+011   3749.03       0.187199E+007   634938.     
  3304.29        215385.      -0.131167E+011   3746.37       0.186418E+007   629936.     
  3335.92        215385.      -0.129642E+011   3743.75       0.185639E+007   624957.     
  3367.54        215385.      -0.128120E+011   3741.16       0.184861E+007   620003.     
  3399.16        215385.      -0.126602E+011   3738.60       0.184083E+007   615074.     
  3430.78        215385.      -0.125086E+011   3736.07       0.183310E+007   610171.     
  3462.41        215385.      -0.123574E+011   3733.57       0.182539E+007   605295.     
  3494.03        215385.      -0.122065E+011   3731.11       0.181766E+007   600448.     
  3525.65        215385.      -0.120559E+011   3728.67       0.180997E+007   595630.     
  3557.28        215385.      -0.118325E+011   3781.99       0.188476E+007   635610.     
  3588.90        215385.      -0.116693E+011   3798.26       0.190784E+007   648498.     
  3620.52        215385.      -0.114992E+011   3813.04       0.192947E+007   660277.     
  3652.15        215385.      -0.113227E+011   3826.44       0.194999E+007   671014.     
  3683.77        215385.      -0.111401E+011   3838.59       0.196932E+007   680775.     
  3715.39        215385.      -0.109519E+011   3849.57       0.198759E+007   689617.     
  3747.02        215385.      -0.107584E+011   3859.48       0.200490E+007   697592.     
  3778.64        215385.      -0.105598E+011   3868.40       0.202131E+007   704744.     
  3810.26        215385.      -0.103565E+011   3876.41       0.203690E+007   711113.     
  3841.88        215385.      -0.101486E+011   3883.56       0.204999E+007   716739.     
  3873.51        215385.      -0.993625E+010   3889.91       0.206588E+007   721654.     
  3905.13        215385.      -0.971970E+010   3895.53       0.207937E+007   725887.     
  3936.75        215385.      -0.949906E+010   3900.45       0.209235E+007   729466.     
  3968.38        215385.      -0.927443E+010   3904.73       0.210412E+007   732407.     
  4000.00        215385.      -0.904589E+010   3908.39       0.211670E+007   734734.     
  2766.70        227351.      -0.182314E+011   4377.08       0.294359E+007  0.140306E+007
  2798.32        227351.      -0.180343E+011   4373.26       0.293725E+007  0.139491E+007
  2829.95        227351.      -0.178371E+011   4369.41       0.293087E+007  0.138674E+007
  2861.57        227351.      -0.176397E+011   4365.55       0.292442E+007  0.137854E+007
  2893.19        227351.      -0.174422E+011   4361.66       0.291801E+007  0.137032E+007
  2924.82        227351.      -0.172446E+011   4357.74       0.291153E+007  0.136208E+007
  2956.44        227351.      -0.170468E+011   4353.81       0.290501E+007  0.135382E+007
  2988.06        227351.      -0.168490E+011   4349.86       0.289846E+007  0.134553E+007
  3019.68        227351.      -0.166510E+011   4345.88       0.289188E+007  0.133722E+007
  3051.31        227351.      -0.164528E+011   4341.88       0.288526E+007  0.132889E+007
  3082.93        227351.      -0.162545E+011   4337.86       0.287857E+007  0.132053E+007
  3114.55        227351.      -0.146674E+011   4048.51       0.234237E+007   970666.     
  3146.18        227351.      -0.144893E+011   4044.53       0.233505E+007   964906.     
  3177.80        227351.      -0.143119E+011   4040.61       0.232782E+007   959258.     
  3209.42        227351.      -0.141351E+011   4036.76       0.232067E+007   953710.     
  3241.05        227351.      -0.124718E+011   3797.78       0.198205E+007   677466.     
  3272.67        227351.      -0.123820E+011   3917.70       0.214318E+007   779185.     
  3304.29        227351.      -0.122234E+011   3923.25       0.214952E+007   782742.     
  3335.92        227351.      -0.120618E+011   3928.67       0.215596E+007   786260.     
  3367.54        227351.      -0.118974E+011   3933.92       0.216247E+007   789713.     
  3399.16        227351.      -0.117300E+011   3938.99       0.216905E+007   793069.     
  3430.78        227351.      -0.115596E+011   3943.84       0.217564E+007   796314.     
  3462.41        227351.      -0.113860E+011   3948.48       0.218228E+007   799426.     
  3494.03        227351.      -0.112094E+011   3952.89       0.218893E+007   802386.     
  3525.65        227351.      -0.110297E+011   3957.04       0.219557E+007   805178.     
  3557.28        227351.      -0.108469E+011   3960.95       0.220218E+007   807786.     
  3588.90        227351.      -0.106609E+011   3964.59       0.220876E+007   810199.     
  3620.52        227351.      -0.104718E+011   3967.97       0.221526E+007   812406.     
  3652.15        227351.      -0.102796E+011   3971.08       0.222287E+007   814390.     
  3683.77        227351.      -0.100843E+011   3973.91       0.222820E+007   816147.     
  3715.39        227351.      -0.988582E+010   3976.48       0.223459E+007   817664.     
  3747.02        227351.      -0.968428E+010   3978.77       0.224091E+007   818937.     
  3778.64        227351.      -0.947965E+010   3980.79       0.224717E+007   819956.     
  3810.26        227351.      -0.927193E+010   3982.54       0.225338E+007   820715.     
  3841.88        227351.      -0.906111E+010   3984.02       0.225988E+007   821206.     
  3873.51        227351.      -0.884719E+010   3985.24       0.226564E+007   821424.     
  3905.13        227351.      -0.863017E+010   3986.19       0.227172E+007   821361.     
  3936.75        227351.      -0.841004E+010   3986.89       0.227775E+007   821010.     
  3968.38        227351.      -0.818678E+010   3987.32       0.228438E+007   820365.     
  4000.00        227351.      -0.796037E+010   3987.51       0.228977E+007   819420.     
  2766.70        239317.      -0.172103E+011   4398.06       0.299910E+007  0.142468E+007
  2798.32        239317.      -0.170140E+011   4394.28       0.299279E+007  0.141659E+007
  2829.95        239317.      -0.168177E+011   4390.45       0.298636E+007  0.140848E+007
  2861.57        239317.      -0.166212E+011   4386.60       0.297987E+007  0.140034E+007
  2893.19        239317.      -0.164246E+011   4382.74       0.297340E+007  0.139219E+007
  2924.82        239317.      -0.162279E+011   4378.86       0.296691E+007  0.138402E+007
  2956.44        239317.      -0.160311E+011   4374.97       0.296039E+007  0.137582E+007
  2988.06        239317.      -0.158341E+011   4371.05       0.295384E+007  0.136760E+007
  3019.68        239317.      -0.156371E+011   4367.11       0.294727E+007  0.135937E+007
  3051.31        239317.      -0.154400E+011   4363.16       0.294066E+007  0.135110E+007
  3082.93        239317.      -0.152427E+011   4359.18       0.293397E+007  0.134282E+007
  3114.55        239317.      -0.150453E+011   4355.19       0.292738E+007  0.133451E+007
  3146.18        239317.      -0.148478E+011   4351.18       0.292044E+007  0.132618E+007
  3177.80        239317.      -0.146502E+011   4347.15       0.291399E+007  0.131782E+007
  3209.42        239317.      -0.144524E+011   4343.10       0.290726E+007  0.130945E+007
  3241.05        239317.      -0.142546E+011   4339.03       0.289988E+007  0.130104E+007
  3272.67        239317.      -0.126607E+011   4262.80       0.269879E+007  0.120899E+007
  3304.29        239317.      -0.124288E+011   4257.01       0.269182E+007  0.119963E+007
  3335.92        239317.      -0.121967E+011   4251.16       0.268506E+007  0.119025E+007
  3367.54        239317.      -0.119643E+011   4245.25       0.267808E+007  0.118085E+007
  3399.16        239317.      -0.117316E+011   4239.29       0.267095E+007  0.117141E+007
  3430.78        239317.      -0.114985E+011   4233.28       0.266437E+007  0.116193E+007
  3462.41        239317.      -0.112650E+011   4227.20       0.265747E+007  0.115241E+007
  3494.03        239317.      -0.110310E+011   4221.08       0.265055E+007  0.114285E+007
  3525.65        239317.      -0.107964E+011   4214.89       0.264363E+007  0.113324E+007
  3557.28        239317.      -0.105612E+011   4208.65       0.263663E+007  0.112358E+007
  3588.90        239317.      -0.103254E+011   4202.35       0.262980E+007  0.111386E+007
  3620.52        239317.      -0.100890E+011   4195.98       0.262289E+007  0.110408E+007
  3652.15        239317.      -0.985180E+010   4189.56       0.261598E+007  0.109423E+007
  3683.77        239317.      -0.961387E+010   4183.08       0.260908E+007  0.108432E+007
  3715.39        239317.      -0.937516E+010   4176.53       0.260218E+007  0.107434E+007
  3747.02        239317.      -0.913559E+010   4169.92       0.259539E+007  0.106428E+007
  3778.64        239317.      -0.889518E+010   4163.24       0.259060E+007  0.105415E+007
  3810.26        239317.      -0.865381E+010   4156.50       0.258157E+007  0.104394E+007
  3841.88        239317.      -0.841151E+010   4149.69       0.257473E+007  0.103364E+007
  3873.51        239317.      -0.816820E+010   4142.80       0.256791E+007  0.102325E+007
  3905.13        239317.      -0.792385E+010   4135.85       0.256111E+007  0.101278E+007
  3936.75        239317.      -0.767841E+010   4128.82       0.255433E+007  0.100221E+007
  3968.38        239317.      -0.743185E+010   4121.72       0.254758E+007   991538.     
  4000.00        239317.      -0.718410E+010   4114.54       0.254088E+007   980767.     
  2766.70        251283.      -0.161812E+011   4418.61       0.305382E+007  0.144585E+007
  2798.32        251283.      -0.159858E+011   4414.83       0.304742E+007  0.143782E+007
  2829.95        251283.      -0.157902E+011   4411.04       0.304084E+007  0.142977E+007
  2861.57        251283.      -0.155946E+011   4407.23       0.303454E+007  0.142171E+007
  2893.19        251283.      -0.153989E+011   4403.40       0.302807E+007  0.141362E+007
  2924.82        251283.      -0.152030E+011   4399.56       0.302157E+007  0.140551E+007
  2956.44        251283.      -0.150071E+011   4395.70       0.301505E+007  0.139738E+007
  2988.06        251283.      -0.148110E+011   4391.82       0.300851E+007  0.138923E+007
  3019.68        251283.      -0.146149E+011   4387.92       0.300195E+007  0.138106E+007
  3051.31        251283.      -0.144187E+011   4384.01       0.299536E+007  0.137287E+007
  3082.93        251283.      -0.142223E+011   4380.08       0.298831E+007  0.136466E+007
  3114.55        251283.      -0.140259E+011   4376.13       0.298212E+007  0.135642E+007
  3146.18        251283.      -0.138293E+011   4372.17       0.297547E+007  0.134816E+007
  3177.80        251283.      -0.136327E+011   4368.18       0.296880E+007  0.133988E+007
  3209.42        251283.      -0.134360E+011   4364.19       0.296211E+007  0.133158E+007
  3241.05        251283.      -0.132391E+011   4360.17       0.295538E+007  0.132325E+007
  3272.67        251283.      -0.130422E+011   4356.13       0.294860E+007  0.131490E+007
  3304.29        251283.      -0.128451E+011   4352.08       0.294187E+007  0.130653E+007
  3335.92        251283.      -0.112375E+011   4274.96       0.273476E+007  0.121779E+007
  3367.54        251283.      -0.110078E+011   4269.20       0.272791E+007  0.120854E+007
  3399.16        251283.      -0.107778E+011   4263.38       0.272104E+007  0.119926E+007
  3430.78        251283.      -0.105474E+011   4257.51       0.271313E+007  0.118995E+007
  3462.41        251283.      -0.103167E+011   4251.59       0.270728E+007  0.118060E+007
  3494.03        251283.      -0.100855E+011   4245.61       0.270040E+007  0.117122E+007
  3525.65        251283.      -0.985377E+010   4239.58       0.269311E+007  0.116178E+007
  3557.28        251283.      -0.962155E+010   4233.49       0.268661E+007  0.115230E+007
  3588.90        251283.      -0.938874E+010   4227.34       0.267972E+007  0.114277E+007
  3620.52        251283.      -0.915533E+010   4221.14       0.267281E+007  0.113318E+007
  3652.15        251283.      -0.892127E+010   4214.88       0.266599E+007  0.112354E+007
  3683.77        251283.      -0.868652E+010   4208.57       0.265906E+007  0.111383E+007
  3715.39        251283.      -0.845105E+010   4202.19       0.265218E+007  0.110406E+007
  3747.02        251283.      -0.821482E+010   4195.75       0.264531E+007  0.109422E+007
  3778.64        251283.      -0.797779E+010   4189.25       0.263805E+007  0.108431E+007
  3810.26        251283.      -0.773992E+010   4182.69       0.263097E+007  0.107433E+007
  3841.88        251283.      -0.750118E+010   4176.06       0.262476E+007  0.106427E+007
  3873.51        251283.      -0.726153E+010   4169.37       0.261793E+007  0.105413E+007
  3905.13        251283.      -0.702093E+010   4162.61       0.261367E+007  0.104391E+007
  3936.75        251283.      -0.677934E+010   4155.78       0.260434E+007  0.103360E+007
  3968.38        251283.      -0.653672E+010   4148.88       0.259757E+007  0.102320E+007
  4000.00        251283.      -0.629303E+010   4141.90       0.259229E+007  0.101271E+007
  2766.70        263248.      -0.151447E+011   4438.75       0.310788E+007  0.146661E+007
  2798.32        263248.      -0.149500E+011   4435.01       0.310146E+007  0.145865E+007
  2829.95        263248.      -0.147552E+011   4431.24       0.309502E+007  0.145066E+007
  2861.57        263248.      -0.145603E+011   4427.46       0.308826E+007  0.144266E+007
  2893.19        263248.      -0.143653E+011   4423.67       0.308208E+007  0.143464E+007
  2924.82        263248.      -0.141703E+011   4419.86       0.307575E+007  0.142659E+007
  2956.44        263248.      -0.139752E+011   4416.03       0.306908E+007  0.141853E+007
  2988.06        263248.      -0.137800E+011   4412.19       0.306255E+007  0.141045E+007
  3019.68        263248.      -0.135847E+011   4408.34       0.305600E+007  0.140235E+007
  3051.31        263248.      -0.133893E+011   4404.47       0.304943E+007  0.139422E+007
  3082.93        263248.      -0.131938E+011   4400.58       0.304284E+007  0.138608E+007
  3114.55        263248.      -0.129983E+011   4396.68       0.303623E+007  0.137791E+007
  3146.18        263248.      -0.128026E+011   4392.76       0.302961E+007  0.136973E+007
  3177.80        263248.      -0.126069E+011   4388.82       0.302289E+007  0.136152E+007
  3209.42        263248.      -0.124111E+011   4384.87       0.301630E+007  0.135329E+007
  3241.05        263248.      -0.122152E+011   4380.91       0.300962E+007  0.134504E+007
  3272.67        263248.      -0.120192E+011   4376.92       0.300292E+007  0.133676E+007
  3304.29        263248.      -0.118231E+011   4372.92       0.299615E+007  0.132846E+007
  3335.92        263248.      -0.116269E+011   4368.91       0.298946E+007  0.132014E+007
  3367.54        263248.      -0.100393E+011   4292.67       0.277732E+007  0.123576E+007
  3399.16        263248.      -0.981181E+010   4286.98       0.277048E+007  0.122664E+007
  3430.78        263248.      -0.958403E+010   4281.25       0.276364E+007  0.121748E+007
  3462.41        263248.      -0.935590E+010   4275.47       0.275678E+007  0.120830E+007
  3494.03        263248.      -0.912735E+010   4269.63       0.274992E+007  0.119907E+007
  3525.65        263248.      -0.889837E+010   4263.74       0.274306E+007  0.118981E+007
  3557.28        263248.      -0.866889E+010   4257.80       0.273750E+007  0.118050E+007
  3588.90        263248.      -0.843889E+010   4251.81       0.272933E+007  0.117114E+007
  3620.52        263248.      -0.820834E+010   4245.76       0.272246E+007  0.116173E+007
  3652.15        263248.      -0.797720E+010   4239.65       0.271561E+007  0.115227E+007
  3683.77        263248.      -0.774542E+010   4233.49       0.270872E+007  0.114276E+007
  3715.39        263248.      -0.751299E+010   4227.28       0.270187E+007  0.113318E+007
  3747.02        263248.      -0.727987E+010   4221.00       0.269501E+007  0.112355E+007
  3778.64        263248.      -0.704601E+010   4214.67       0.268816E+007  0.111385E+007
  3810.26        263248.      -0.681139E+010   4208.28       0.268163E+007  0.110408E+007
  3841.88        263248.      -0.657597E+010   4201.82       0.267451E+007  0.109424E+007
  3873.51        263248.      -0.633972E+010   4195.31       0.266767E+007  0.108433E+007
  3905.13        263248.      -0.610261E+010   4188.73       0.266086E+007  0.107434E+007
  3936.75        263248.      -0.586459E+010   4182.08       0.265408E+007  0.106427E+007
  3968.38        263248.      -0.562564E+010   4175.37       0.264730E+007  0.105412E+007
  4000.00        263248.      -0.538571E+010   4168.59       0.264055E+007  0.104389E+007
  2766.70        275214.      -0.141008E+011   4458.53       0.316133E+007  0.148699E+007
  2798.32        275214.      -0.139068E+011   4454.81       0.315490E+007  0.147909E+007
  2829.95        275214.      -0.137127E+011   4451.08       0.314833E+007  0.147117E+007
  2861.57        275214.      -0.135186E+011   4447.33       0.314201E+007  0.146323E+007
  2893.19        275214.      -0.133244E+011   4443.57       0.313552E+007  0.145527E+007
  2924.82        275214.      -0.131301E+011   4439.79       0.312903E+007  0.144729E+007
  2956.44        275214.      -0.129357E+011   4436.00       0.312247E+007  0.143929E+007
  2988.06        275214.      -0.127413E+011   4432.20       0.311601E+007  0.143128E+007
  3019.68        275214.      -0.125468E+011   4428.38       0.310944E+007  0.142324E+007
  3051.31        275214.      -0.123522E+011   4424.55       0.310292E+007  0.141519E+007
  3082.93        275214.      -0.121576E+011   4420.71       0.309635E+007  0.140711E+007
  3114.55        275214.      -0.119628E+011   4416.85       0.308977E+007  0.139901E+007
  3146.18        275214.      -0.117680E+011   4412.97       0.308318E+007  0.139090E+007
  3177.80        275214.      -0.115732E+011   4409.09       0.307660E+007  0.138276E+007
  3209.42        275214.      -0.113782E+011   4405.18       0.306993E+007  0.137460E+007
  3241.05        275214.      -0.111832E+011   4401.26       0.306274E+007  0.136642E+007
  3272.67        275214.      -0.109881E+011   4397.33       0.305662E+007  0.135822E+007
  3304.29        275214.      -0.107929E+011   4393.38       0.304994E+007  0.135000E+007
  3335.92        275214.      -0.105976E+011   4389.42       0.304324E+007  0.134175E+007
  3367.54        275214.      -0.104023E+011   4385.44       0.303655E+007  0.133349E+007
  3399.16        275214.      -0.102068E+011   4381.45       0.302979E+007  0.132520E+007
  3430.78        275214.      -0.860893E+010   4304.53       0.281280E+007  0.124456E+007
  3462.41        275214.      -0.838327E+010   4298.88       0.280595E+007  0.123552E+007
  3494.03        275214.      -0.815724E+010   4293.18       0.279915E+007  0.122645E+007
  3525.65        275214.      -0.793080E+010   4287.42       0.279240E+007  0.121734E+007
  3557.28        275214.      -0.770392E+010   4281.62       0.278547E+007  0.120819E+007
  3588.90        275214.      -0.747658E+010   4275.77       0.277732E+007  0.119900E+007
  3620.52        275214.      -0.724871E+010   4269.86       0.277179E+007  0.118976E+007
  3652.15        275214.      -0.702029E+010   4263.90       0.276493E+007  0.118047E+007
  3683.77        275214.      -0.679131E+010   4257.89       0.275810E+007  0.117114E+007
  3715.39        275214.      -0.656173E+010   4251.83       0.275182E+007  0.116175E+007
  3747.02        275214.      -0.633150E+010   4245.70       0.274442E+007  0.115230E+007
  3778.64        275214.      -0.610062E+010   4239.53       0.273759E+007  0.114279E+007
  3810.26        275214.      -0.586903E+010   4233.30       0.273076E+007  0.113322E+007
  3841.88        275214.      -0.563672E+010   4227.00       0.272385E+007  0.112359E+007
  3873.51        275214.      -0.540365E+010   4220.66       0.271712E+007  0.111388E+007
  3905.13        275214.      -0.516979E+010   4214.24       0.271023E+007  0.110411E+007
  3936.75        275214.      -0.493510E+010   4207.77       0.270313E+007  0.109427E+007
  3968.38        275214.      -0.469956E+010   4201.24       0.269678E+007  0.108435E+007
  4000.00        275214.      -0.446312E+010   4194.64       0.269002E+007  0.107435E+007
  2766.70        287180.      -0.130500E+011   4477.97       0.321424E+007  0.150701E+007
  2798.32        287180.      -0.128567E+011   4474.27       0.320780E+007  0.149917E+007
  2829.95        287180.      -0.126632E+011   4470.57       0.320136E+007  0.149131E+007
  2861.57        287180.      -0.124698E+011   4466.85       0.319490E+007  0.148343E+007
  2893.19        287180.      -0.122762E+011   4463.12       0.318844E+007  0.147554E+007
  2924.82        287180.      -0.120827E+011   4459.38       0.318208E+007  0.146762E+007
  2956.44        287180.      -0.118890E+011   4455.63       0.317544E+007  0.145969E+007
  2988.06        287180.      -0.116953E+011   4451.86       0.316894E+007  0.145174E+007
  3019.68        287180.      -0.115015E+011   4448.08       0.316242E+007  0.144377E+007
  3051.31        287180.      -0.113077E+011   4444.29       0.315589E+007  0.143578E+007
  3082.93        287180.      -0.111138E+011   4440.49       0.314938E+007  0.142777E+007
  3114.55        287180.      -0.109199E+011   4436.67       0.314279E+007  0.141975E+007
  3146.18        287180.      -0.107259E+011   4432.84       0.313622E+007  0.141170E+007
  3177.80        287180.      -0.105318E+011   4429.00       0.312963E+007  0.140363E+007
  3209.42        287180.      -0.103376E+011   4425.14       0.312303E+007  0.139554E+007
  3241.05        287180.      -0.101434E+011   4421.27       0.311642E+007  0.138744E+007
  3272.67        287180.      -0.994915E+010   4417.38       0.310985E+007  0.137931E+007
  3304.29        287180.      -0.975481E+010   4413.48       0.310315E+007  0.137116E+007
  3335.92        287180.      -0.956040E+010   4409.57       0.309649E+007  0.136298E+007
  3367.54        287180.      -0.936592E+010   4405.64       0.308982E+007  0.135479E+007
  3399.16        287180.      -0.917138E+010   4401.70       0.308313E+007  0.134658E+007
  3430.78        287180.      -0.897676E+010   4397.75       0.307669E+007  0.133834E+007
  3462.41        287180.      -0.878207E+010   4393.78       0.306971E+007  0.133008E+007
  3494.03        287180.      -0.717570E+010   4316.27       0.284812E+007  0.125338E+007
  3525.65        287180.      -0.695167E+010   4310.64       0.284128E+007  0.124442E+007
  3557.28        287180.      -0.672724E+010   4304.97       0.283446E+007  0.123542E+007
  3588.90        287180.      -0.650238E+010   4299.25       0.282781E+007  0.122638E+007
  3620.52        287180.      -0.627704E+010   4293.48       0.282079E+007  0.121730E+007
  3652.15        287180.      -0.605121E+010   4287.66       0.281401E+007  0.120818E+007
  3683.77        287180.      -0.582485E+010   4281.79       0.280713E+007  0.119900E+007
  3715.39        287180.      -0.559794E+010   4275.87       0.279990E+007  0.118978E+007
  3747.02        287180.      -0.537044E+010   4269.89       0.279355E+007  0.118051E+007
  3778.64        287180.      -0.514234E+010   4263.86       0.278674E+007  0.117118E+007
  3810.26        287180.      -0.491360E+010   4257.78       0.277993E+007  0.116180E+007
  3841.88        287180.      -0.468420E+010   4251.64       0.277312E+007  0.115235E+007
  3873.51        287180.      -0.445409E+010   4245.45       0.276623E+007  0.114285E+007
  3905.13        287180.      -0.422326E+010   4239.20       0.275958E+007  0.113328E+007
  3936.75        287180.      -0.399169E+010   4232.89       0.275334E+007  0.112364E+007
  3968.38        287180.      -0.375932E+010   4226.52       0.274640E+007  0.111393E+007
  4000.00        287180.      -0.352615E+010   4220.10       0.273922E+007  0.110415E+007
  2766.70        299146.      -0.119924E+011   4497.08       0.326665E+007  0.152668E+007
  2798.32        299146.      -0.117997E+011   4493.42       0.326022E+007  0.151890E+007
  2829.95        299146.      -0.116069E+011   4489.74       0.325377E+007  0.151111E+007
  2861.57        299146.      -0.114141E+011   4486.06       0.324732E+007  0.150329E+007
  2893.19        299146.      -0.112212E+011   4482.36       0.324085E+007  0.149546E+007
  2924.82        299146.      -0.110283E+011   4478.65       0.323438E+007  0.148761E+007
  2956.44        299146.      -0.108353E+011   4474.93       0.322790E+007  0.147975E+007
  2988.06        299146.      -0.106423E+011   4471.20       0.322134E+007  0.147186E+007
  3019.68        299146.      -0.104492E+011   4467.46       0.321488E+007  0.146396E+007
  3051.31        299146.      -0.102561E+011   4463.71       0.320839E+007  0.145603E+007
  3082.93        299146.      -0.100629E+011   4459.94       0.320186E+007  0.144809E+007
  3114.55        299146.      -0.986969E+010   4456.17       0.319533E+007  0.144013E+007
  3146.18        299146.      -0.967641E+010   4452.38       0.318878E+007  0.143215E+007
  3177.80        299146.      -0.948308E+010   4448.58       0.318221E+007  0.142415E+007
  3209.42        299146.      -0.928970E+010   4444.76       0.317565E+007  0.141613E+007
  3241.05        299146.      -0.909626E+010   4440.94       0.316905E+007  0.140809E+007
  3272.67        299146.      -0.890276E+010   4437.10       0.316247E+007  0.140004E+007
  3304.29        299146.      -0.870921E+010   4433.24       0.315586E+007  0.139196E+007
  3335.92        299146.      -0.851561E+010   4429.38       0.314946E+007  0.138386E+007
  3367.54        299146.      -0.832194E+010   4425.50       0.314261E+007  0.137574E+007
  3399.16        299146.      -0.812822E+010   4421.61       0.313596E+007  0.136760E+007
  3430.78        299146.      -0.793444E+010   4417.71       0.312931E+007  0.135943E+007
  3462.41        299146.      -0.774060E+010   4413.79       0.312321E+007  0.135125E+007
  3494.03        299146.      -0.754669E+010   4409.86       0.311568E+007  0.134304E+007
  3525.65        299146.      -0.735271E+010   4405.91       0.310922E+007  0.133482E+007
  3557.28        299146.      -0.573941E+010   4327.88       0.288323E+007  0.126221E+007
  3588.90        299146.      -0.551689E+010   4322.29       0.287639E+007  0.125331E+007
  3620.52        299146.      -0.529394E+010   4316.64       0.286964E+007  0.124438E+007
  3652.15        299146.      -0.507054E+010   4310.96       0.286229E+007  0.123541E+007
  3683.77        299146.      -0.484665E+010   4305.22       0.285600E+007  0.122639E+007
  3715.39        299146.      -0.462226E+010   4299.43       0.284947E+007  0.121733E+007
  3747.02        299146.      -0.439733E+010   4293.59       0.284257E+007  0.120822E+007
  3778.64        299146.      -0.417184E+010   4287.70       0.283562E+007  0.119906E+007
  3810.26        299146.      -0.394577E+010   4281.76       0.282868E+007  0.118985E+007
  3841.88        299146.      -0.371908E+010   4275.77       0.282204E+007  0.118059E+007
  3873.51        299146.      -0.349176E+010   4269.73       0.281526E+007  0.117126E+007
  3905.13        299146.      -0.326378E+010   4263.63       0.280838E+007  0.116188E+007
  3936.75        299146.      -0.303511E+010   4257.47       0.280171E+007  0.115243E+007
  3968.38        299146.      -0.280572E+010   4251.26       0.279497E+007  0.114292E+007
  4000.00        299146.      -0.257558E+010   4244.99       0.278807E+007  0.113335E+007
  2766.70        311112.      -0.109284E+011   4515.89       0.331863E+007  0.154603E+007
  2798.32        311112.      -0.107362E+011   4512.26       0.331219E+007  0.153832E+007
  2829.95        311112.      -0.105440E+011   4508.61       0.330574E+007  0.153058E+007
  2861.57        311112.      -0.103518E+011   4504.96       0.329929E+007  0.152283E+007
  2893.19        311112.      -0.101595E+011   4501.29       0.329284E+007  0.151507E+007
  2924.82        311112.      -0.996721E+010   4497.62       0.328632E+007  0.150728E+007
  2956.44        311112.      -0.977487E+010   4493.93       0.327990E+007  0.149948E+007
  2988.06        311112.      -0.958249E+010   4490.24       0.327370E+007  0.149165E+007
  3019.68        311112.      -0.939006E+010   4486.53       0.326693E+007  0.148381E+007
  3051.31        311112.      -0.919760E+010   4482.82       0.326013E+007  0.147596E+007
  3082.93        311112.      -0.900510E+010   4479.09       0.325396E+007  0.146808E+007
  3114.55        311112.      -0.881256E+010   4475.35       0.324751E+007  0.146019E+007
  3146.18        311112.      -0.861997E+010   4471.60       0.324090E+007  0.145227E+007
  3177.80        311112.      -0.842734E+010   4467.84       0.323436E+007  0.144434E+007
  3209.42        311112.      -0.823467E+010   4464.07       0.322782E+007  0.143639E+007
  3241.05        311112.      -0.804195E+010   4460.29       0.322130E+007  0.142842E+007
  3272.67        311112.      -0.784919E+010   4456.49       0.321468E+007  0.142043E+007
  3304.29        311112.      -0.765639E+010   4452.69       0.320813E+007  0.141242E+007
  3335.92        311112.      -0.746353E+010   4448.87       0.320154E+007  0.140439E+007
  3367.54        311112.      -0.727063E+010   4445.04       0.319495E+007  0.139634E+007
  3399.16        311112.      -0.707768E+010   4441.19       0.318835E+007  0.138827E+007
  3430.78        311112.      -0.688468E+010   4437.34       0.318162E+007  0.138018E+007
  3462.41        311112.      -0.669163E+010   4433.47       0.317509E+007  0.137207E+007
  3494.03        311112.      -0.649853E+010   4429.59       0.316846E+007  0.136394E+007
  3525.65        311112.      -0.630538E+010   4425.69       0.316178E+007  0.135579E+007
  3557.28        311112.      -0.611217E+010   4421.78       0.315485E+007  0.134761E+007
  3588.90        311112.      -0.452064E+010   4344.90       0.292486E+007  0.127982E+007
  3620.52        311112.      -0.429995E+010   4339.38       0.291810E+007  0.127103E+007
  3652.15        311112.      -0.407884E+010   4333.81       0.291133E+007  0.126220E+007
  3683.77        311112.      -0.385728E+010   4328.20       0.290456E+007  0.125333E+007
  3715.39        311112.      -0.363526E+010   4322.54       0.289830E+007  0.124442E+007
  3747.02        311112.      -0.341274E+010   4316.83       0.289107E+007  0.123547E+007
  3778.64        311112.      -0.318973E+010   4311.08       0.288219E+007  0.122646E+007
  3810.26        311112.      -0.296615E+010   4305.27       0.287747E+007  0.121741E+007
  3841.88        311112.      -0.274202E+010   4299.42       0.287096E+007  0.120831E+007
  3873.51        311112.      -0.251731E+010   4293.51       0.286392E+007  0.119916E+007
  3905.13        311112.      -0.229200E+010   4287.55       0.285718E+007  0.118995E+007
  3936.75        311112.      -0.206604E+010   4281.54       0.285032E+007  0.118069E+007
  3968.38        311112.      -0.183944E+010   4275.48       0.284367E+007  0.117136E+007
  4000.00        311112.      -0.161214E+010   4269.36       0.283693E+007  0.116198E+007
  2766.70        323077.      -0.985804E+010   4534.42       0.337018E+007  0.156508E+007
  2798.32        323077.      -0.966642E+010   4530.81       0.336375E+007  0.155742E+007
  2829.95        323077.      -0.947478E+010   4527.20       0.335731E+007  0.154975E+007
  2861.57        323077.      -0.928311E+010   4523.57       0.335077E+007  0.154206E+007
  2893.19        323077.      -0.909141E+010   4519.94       0.334442E+007  0.153436E+007
  2924.82        323077.      -0.889969E+010   4516.30       0.333796E+007  0.152664E+007
  2956.44        323077.      -0.870793E+010   4512.65       0.333150E+007  0.151890E+007
  2988.06        323077.      -0.851615E+010   4508.98       0.332505E+007  0.151114E+007
  3019.68        323077.      -0.832434E+010   4505.31       0.331845E+007  0.150336E+007
  3051.31        323077.      -0.813250E+010   4501.63       0.331208E+007  0.149557E+007
  3082.93        323077.      -0.794063E+010   4497.94       0.330560E+007  0.148776E+007
  3114.55        323077.      -0.774873E+010   4494.24       0.329910E+007  0.147993E+007
  3146.18        323077.      -0.755679E+010   4490.53       0.329260E+007  0.147208E+007
  3177.80        323077.      -0.736483E+010   4486.81       0.328609E+007  0.146421E+007
  3209.42        323077.      -0.717282E+010   4483.08       0.327958E+007  0.145633E+007
  3241.05        323077.      -0.698079E+010   4479.34       0.327305E+007  0.144843E+007
  3272.67        323077.      -0.678871E+010   4475.59       0.326652E+007  0.144050E+007
  3304.29        323077.      -0.659661E+010   4471.82       0.325997E+007  0.143256E+007
  3335.92        323077.      -0.640446E+010   4468.05       0.325342E+007  0.142460E+007
  3367.54        323077.      -0.621227E+010   4464.26       0.324686E+007  0.141662E+007
  3399.16        323077.      -0.602005E+010   4460.46       0.324026E+007  0.140862E+007
  3430.78        323077.      -0.582779E+010   4456.65       0.323370E+007  0.140060E+007
  3462.41        323077.      -0.563548E+010   4452.83       0.322711E+007  0.139256E+007
  3494.03        323077.      -0.544314E+010   4449.00       0.322050E+007  0.138450E+007
  3525.65        323077.      -0.525075E+010   4445.15       0.321389E+007  0.137642E+007
  3557.28        323077.      -0.505831E+010   4441.30       0.320726E+007  0.136832E+007
  3588.90        323077.      -0.486583E+010   4437.43       0.320065E+007  0.136020E+007
  3620.52        323077.      -0.467331E+010   4433.54       0.319371E+007  0.135206E+007
  3652.15        323077.      -0.307661E+010   4356.25       0.296120E+007  0.128858E+007
  3683.77        323077.      -0.285725E+010   4350.76       0.295286E+007  0.127985E+007
  3715.39        323077.      -0.263747E+010   4345.22       0.294611E+007  0.127108E+007
  3747.02        323077.      -0.241723E+010   4339.64       0.293936E+007  0.126227E+007
  3778.64        323077.      -0.219652E+010   4334.01       0.293259E+007  0.125341E+007
  3810.26        323077.      -0.197533E+010   4328.33       0.292634E+007  0.124452E+007
  3841.88        323077.      -0.175360E+010   4322.60       0.291912E+007  0.123557E+007
  3873.51        323077.      -0.153135E+010   4316.83       0.291210E+007  0.122658E+007
  3905.13        323077.      -0.130853E+010   4311.01       0.290563E+007  0.121753E+007
  3936.75        323077.      -0.108514E+010   4305.14       0.289889E+007  0.120843E+007
  3968.38        323077.      -0.861144E+009   4299.21       0.289211E+007  0.119928E+007
  4000.00        323077.      -0.636514E+009   4293.24       0.288543E+007  0.119007E+007
  2766.70        335043.      -0.878162E+010   4552.68       0.342136E+007  0.158382E+007
  2798.32        335043.      -0.859052E+010   4549.10       0.341486E+007  0.157623E+007
  2829.95        335043.      -0.839939E+010   4545.51       0.340849E+007  0.156862E+007
  2861.57        335043.      -0.820825E+010   4541.92       0.340206E+007  0.156100E+007
  2893.19        335043.      -0.801710E+010   4538.31       0.339562E+007  0.155336E+007
  2924.82        335043.      -0.782592E+010   4534.70       0.338917E+007  0.154570E+007
  2956.44        335043.      -0.763473E+010   4531.08       0.338267E+007  0.153802E+007
  2988.06        335043.      -0.744351E+010   4527.46       0.337627E+007  0.153032E+007
  3019.68        335043.      -0.725228E+010   4523.82       0.336974E+007  0.152261E+007
  3051.31        335043.      -0.706102E+010   4520.18       0.336335E+007  0.151488E+007
  3082.93        335043.      -0.686975E+010   4516.52       0.335690E+007  0.150713E+007
  3114.55        335043.      -0.667844E+010   4512.86       0.335041E+007  0.149937E+007
  3146.18        335043.      -0.648712E+010   4509.18       0.334436E+007  0.149159E+007
  3177.80        335043.      -0.629577E+010   4505.50       0.333744E+007  0.148379E+007
  3209.42        335043.      -0.610440E+010   4501.81       0.333143E+007  0.147597E+007
  3241.05        335043.      -0.591300E+010   4498.11       0.332445E+007  0.146813E+007
  3272.67        335043.      -0.572158E+010   4494.40       0.331741E+007  0.146027E+007
  3304.29        335043.      -0.553012E+010   4490.67       0.331142E+007  0.145240E+007
  3335.92        335043.      -0.533864E+010   4486.94       0.330488E+007  0.144451E+007
  3367.54        335043.      -0.514713E+010   4483.20       0.329837E+007  0.143659E+007
  3399.16        335043.      -0.495559E+010   4479.44       0.329199E+007  0.142866E+007
  3430.78        335043.      -0.476402E+010   4475.68       0.328528E+007  0.142071E+007
  3462.41        335043.      -0.457242E+010   4471.90       0.327887E+007  0.141274E+007
  3494.03        335043.      -0.438078E+010   4468.11       0.327215E+007  0.140475E+007
  3525.65        335043.      -0.418911E+010   4464.32       0.326555E+007  0.139675E+007
  3557.28        335043.      -0.399740E+010   4460.51       0.325899E+007  0.138872E+007
  3588.90        335043.      -0.380566E+010   4456.68       0.325253E+007  0.138067E+007
  3620.52        335043.      -0.361388E+010   4452.85       0.324579E+007  0.137260E+007
  3652.15        335043.      -0.342207E+010   4449.00       0.323899E+007  0.136451E+007
  3683.77        335043.      -0.323021E+010   4445.15       0.323229E+007  0.135640E+007
  3715.39        335043.      -0.162937E+010   4367.49       0.299419E+007  0.129733E+007
  3747.02        335043.      -0.141129E+010   4362.03       0.298747E+007  0.128865E+007
  3778.64        335043.      -0.119277E+010   4356.52       0.298074E+007  0.127994E+007
  3810.26        335043.      -0.973799E+009   4350.96       0.297402E+007  0.127118E+007
  3841.88        335043.      -0.754350E+009   4345.36       0.296729E+007  0.126238E+007
  3873.51        335043.      -0.534406E+009   4339.71       0.296057E+007  0.125354E+007
  3905.13        335043.      -0.313940E+009   4334.02       0.295393E+007  0.124465E+007
  3936.75        335043.      -0.929560E+008   4328.27       0.294712E+007  0.123571E+007
  3968.38        335043.       0.128587E+009   4322.48       0.293986E+007  0.122671E+007
  4000.00        335043.       0.350710E+009   4316.64       0.293372E+007  0.121767E+007
  2766.70        347009.      -0.769933E+010   4570.68       0.347219E+007  0.160229E+007
  2798.32        347009.      -0.750870E+010   4567.13       0.346577E+007  0.159476E+007
  2829.95        347009.      -0.731807E+010   4563.57       0.345934E+007  0.158721E+007
  2861.57        347009.      -0.712743E+010   4560.01       0.345289E+007  0.157965E+007
  2893.19        347009.      -0.693678E+010   4556.43       0.344655E+007  0.157207E+007
  2924.82        347009.      -0.674612E+010   4552.85       0.344010E+007  0.156447E+007
  2956.44        347009.      -0.655545E+010   4549.26       0.343360E+007  0.155686E+007
  2988.06        347009.      -0.636477E+010   4545.67       0.342716E+007  0.154923E+007
  3019.68        347009.      -0.617408E+010   4542.07       0.342071E+007  0.154158E+007
  3051.31        347009.      -0.598337E+010   4538.45       0.341427E+007  0.153391E+007
  3082.93        347009.      -0.579265E+010   4534.83       0.340780E+007  0.152623E+007
  3114.55        347009.      -0.560192E+010   4531.21       0.340136E+007  0.151853E+007
  3146.18        347009.      -0.541117E+010   4527.57       0.339490E+007  0.151081E+007
  3177.80        347009.      -0.522041E+010   4523.92       0.338843E+007  0.150307E+007
  3209.42        347009.      -0.502963E+010   4520.27       0.338196E+007  0.149532E+007
  3241.05        347009.      -0.483883E+010   4516.60       0.337548E+007  0.148754E+007
  3272.67        347009.      -0.464801E+010   4512.93       0.336900E+007  0.147975E+007
  3304.29        347009.      -0.445718E+010   4509.25       0.336251E+007  0.147194E+007
  3335.92        347009.      -0.426632E+010   4505.55       0.335599E+007  0.146412E+007
  3367.54        347009.      -0.407545E+010   4501.85       0.334951E+007  0.145627E+007
  3399.16        347009.      -0.388455E+010   4498.14       0.334300E+007  0.144841E+007
  3430.78        347009.      -0.369363E+010   4494.42       0.333648E+007  0.144053E+007
  3462.41        347009.      -0.350268E+010   4490.69       0.332997E+007  0.143262E+007
  3494.03        347009.      -0.331171E+010   4486.94       0.332343E+007  0.142470E+007
  3525.65        347009.      -0.312072E+010   4483.19       0.331689E+007  0.141676E+007
  3557.28        347009.      -0.292970E+010   4479.42       0.331033E+007  0.140881E+007
  3588.90        347009.      -0.273865E+010   4475.65       0.330378E+007  0.140083E+007
  3620.52        347009.      -0.254758E+010   4471.86       0.329716E+007  0.139283E+007
  3652.15        347009.      -0.235647E+010   4468.06       0.329063E+007  0.138481E+007
  3683.77        347009.      -0.216534E+010   4464.26       0.328405E+007  0.137678E+007
  3715.39        347009.      -0.197417E+010   4460.44       0.327745E+007  0.136872E+007
  3747.02        347009.      -0.395383E+009   4384.03       0.303582E+007  0.131465E+007
  3778.64        347009.      -0.178941E+009   4378.63       0.302865E+007  0.130606E+007
  3810.26        347009.       0.379300E+008   4373.19       0.302194E+007  0.129744E+007
  3841.88        347009.       0.255241E+009   4367.70       0.301523E+007  0.128878E+007
  3873.51        347009.       0.473003E+009   4362.17       0.300853E+007  0.128007E+007
  3905.13        347009.       0.691239E+009   4356.60       0.300183E+007  0.127133E+007
  3936.75        347009.       0.909966E+009   4350.98       0.299513E+007  0.126253E+007
  3968.38        347009.       0.112920E+010   4345.32       0.298843E+007  0.125369E+007
  4000.00        347009.       0.134896E+010   4339.60       0.298174E+007  0.124481E+007
  2766.70        358975.      -0.661134E+010   4588.45       0.352270E+007  0.162048E+007
  2798.32        358975.      -0.642117E+010   4584.92       0.351647E+007  0.161302E+007
  2829.95        358975.      -0.623099E+010   4581.39       0.350985E+007  0.160553E+007
  2861.57        358975.      -0.604082E+010   4577.85       0.350343E+007  0.159803E+007
  2893.19        358975.      -0.585065E+010   4574.31       0.349700E+007  0.159051E+007
  2924.82        358975.      -0.566048E+010   4570.75       0.349059E+007  0.158298E+007
  2956.44        358975.      -0.547031E+010   4567.20       0.348415E+007  0.157543E+007
  2988.06        358975.      -0.528013E+010   4563.63       0.347764E+007  0.156786E+007
  3019.68        358975.      -0.508994E+010   4560.06       0.347128E+007  0.156027E+007
  3051.31        358975.      -0.489976E+010   4556.48       0.346477E+007  0.155267E+007
  3082.93        358975.      -0.470957E+010   4552.89       0.345842E+007  0.154505E+007
  3114.55        358975.      -0.451937E+010   4549.30       0.345190E+007  0.153741E+007
  3146.18        358975.      -0.432916E+010   4545.70       0.344553E+007  0.152975E+007
  3177.80        358975.      -0.413895E+010   4542.09       0.343909E+007  0.152208E+007
  3209.42        358975.      -0.394872E+010   4538.47       0.343263E+007  0.151439E+007
  3241.05        358975.      -0.375849E+010   4534.84       0.342618E+007  0.150668E+007
  3272.67        358975.      -0.356825E+010   4531.20       0.341972E+007  0.149895E+007
  3304.29        358975.      -0.337799E+010   4527.56       0.341325E+007  0.149121E+007
  3335.92        358975.      -0.318773E+010   4523.91       0.340678E+007  0.148345E+007
  3367.54        358975.      -0.299745E+010   4520.24       0.340031E+007  0.147567E+007
  3399.16        358975.      -0.280715E+010   4516.57       0.339368E+007  0.146787E+007
  3430.78        358975.      -0.261684E+010   4512.89       0.338734E+007  0.146005E+007
  3462.41        358975.      -0.242652E+010   4509.20       0.338084E+007  0.145222E+007
  3494.03        358975.      -0.223618E+010   4505.50       0.337434E+007  0.144437E+007
  3525.65        358975.      -0.204582E+010   4501.79       0.336783E+007  0.143650E+007
  3557.28        358975.      -0.185545E+010   4498.07       0.336134E+007  0.142861E+007
  3588.90        358975.      -0.166505E+010   4494.34       0.335479E+007  0.142070E+007
  3620.52        358975.      -0.147464E+010   4490.59       0.334826E+007  0.141277E+007
  3652.15        358975.      -0.128420E+010   4486.84       0.334173E+007  0.140482E+007
  3683.77        358975.      -0.109375E+010   4483.08       0.333518E+007  0.139685E+007
  3715.39        358975.      -0.903265E+009   4479.31       0.332862E+007  0.138887E+007
  3747.02        358975.      -0.712760E+009   4475.52       0.332206E+007  0.138086E+007
  3778.64        358975.      -0.522231E+009   4471.73       0.331548E+007  0.137284E+007
  3810.26        358975.       0.105943E+010   4395.03       0.306975E+007  0.132331E+007
  3841.88        358975.       0.127471E+010   4389.66       0.306487E+007  0.131478E+007
  3873.51        358975.       0.149041E+010   4384.24       0.305627E+007  0.130621E+007
  3905.13        358975.       0.170655E+010   4378.78       0.304959E+007  0.129760E+007
  3936.75        358975.       0.192314E+010   4373.28       0.304285E+007  0.128894E+007
  3968.38        358975.       0.214020E+010   4367.74       0.303624E+007  0.128024E+007
  4000.00        358975.       0.235775E+010   4362.14       0.302972E+007  0.127150E+007
  2766.70        370941.      -0.551782E+010   4605.98       0.357290E+007  0.163842E+007
  2798.32        370941.      -0.532808E+010   4602.48       0.356648E+007  0.163101E+007
  2829.95        370941.      -0.513835E+010   4598.97       0.356008E+007  0.162359E+007
  2861.57        370941.      -0.494862E+010   4595.46       0.355364E+007  0.161615E+007
  2893.19        370941.      -0.475890E+010   4591.94       0.354722E+007  0.160870E+007
  2924.82        370941.      -0.456918E+010   4588.42       0.354087E+007  0.160122E+007
  2956.44        370941.      -0.437947E+010   4584.89       0.353439E+007  0.159373E+007
  2988.06        370941.      -0.418977E+010   4581.36       0.352797E+007  0.158623E+007
  3019.68        370941.      -0.400006E+010   4577.82       0.352155E+007  0.157870E+007
  3051.31        370941.      -0.381037E+010   4574.27       0.351513E+007  0.157116E+007
  3082.93        370941.      -0.362067E+010   4570.71       0.350871E+007  0.156360E+007
  3114.55        370941.      -0.343097E+010   4567.15       0.350228E+007  0.155603E+007
  3146.18        370941.      -0.324128E+010   4563.58       0.349585E+007  0.154843E+007
  3177.80        370941.      -0.305158E+010   4560.01       0.348942E+007  0.154082E+007
  3209.42        370941.      -0.286188E+010   4556.42       0.348298E+007  0.153320E+007
  3241.05        370941.      -0.267218E+010   4552.83       0.347656E+007  0.152555E+007
  3272.67        370941.      -0.248248E+010   4549.23       0.347012E+007  0.151789E+007
  3304.29        370941.      -0.229277E+010   4545.62       0.346368E+007  0.151021E+007
  3335.92        370941.      -0.210306E+010   4542.01       0.345711E+007  0.150251E+007
  3367.54        370941.      -0.191334E+010   4538.38       0.345078E+007  0.149480E+007
  3399.16        370941.      -0.172362E+010   4534.75       0.344432E+007  0.148706E+007
  3430.78        370941.      -0.153389E+010   4531.11       0.343786E+007  0.147931E+007
  3462.41        370941.      -0.134415E+010   4527.45       0.343142E+007  0.147154E+007
  3494.03        370941.      -0.115440E+010   4523.79       0.342490E+007  0.146376E+007
  3525.65        370941.      -0.964643E+009   4520.12       0.341844E+007  0.145595E+007
  3557.28        370941.      -0.774874E+009   4516.44       0.341196E+007  0.144813E+007
  3588.90        370941.      -0.585094E+009   4512.76       0.340547E+007  0.144029E+007
  3620.52        370941.      -0.395302E+009   4509.06       0.339897E+007  0.143243E+007
  3652.15        370941.      -0.205496E+009   4505.35       0.339247E+007  0.142455E+007
  3683.77        370941.      -0.156763E+008   4501.63       0.338596E+007  0.141665E+007
  3715.39        370941.       0.174159E+009   4497.90       0.337944E+007  0.140873E+007
  3747.02        370941.       0.364010E+009   4494.17       0.337291E+007  0.140080E+007
  3778.64        370941.       0.553878E+009   4490.42       0.336637E+007  0.139284E+007
  3810.26        370941.       0.743764E+009   4486.66       0.335983E+007  0.138487E+007
  3841.88        370941.       0.933669E+009   4482.89       0.335328E+007  0.137687E+007
  3873.51        370941.       0.251739E+010   4405.93       0.310377E+007  0.133196E+007
  3905.13        370941.       0.273155E+010   4400.58       0.309714E+007  0.132348E+007
  3936.75        370941.       0.294612E+010   4395.19       0.309050E+007  0.131495E+007
  3968.38        370941.       0.316112E+010   4389.76       0.308379E+007  0.130639E+007
  4000.00        370941.       0.337658E+010   4384.28       0.307769E+007  0.129778E+007
  2766.70        382906.      -0.441896E+010   4623.29       0.362282E+007  0.165610E+007
  2798.32        382906.      -0.422961E+010   4619.81       0.361640E+007  0.164875E+007
  2829.95        382906.      -0.404029E+010   4616.33       0.360999E+007  0.164140E+007
  2861.57        382906.      -0.385098E+010   4612.85       0.360357E+007  0.163402E+007
  2893.19        382906.      -0.366168E+010   4609.36       0.359722E+007  0.162663E+007
  2924.82        382906.      -0.347239E+010   4605.86       0.359075E+007  0.161922E+007
  2956.44        382906.      -0.328312E+010   4602.36       0.358433E+007  0.161179E+007
  2988.06        382906.      -0.309386E+010   4598.86       0.357793E+007  0.160434E+007
  3019.68        382906.      -0.290461E+010   4595.35       0.357119E+007  0.159688E+007
  3051.31        382906.      -0.271537E+010   4591.83       0.356511E+007  0.158940E+007
  3082.93        382906.      -0.252614E+010   4588.30       0.355872E+007  0.158191E+007
  3114.55        382906.      -0.233692E+010   4584.77       0.355229E+007  0.157439E+007
  3146.18        382906.      -0.214771E+010   4581.24       0.354588E+007  0.156686E+007
  3177.80        382906.      -0.195850E+010   4577.69       0.353947E+007  0.155931E+007
  3209.42        382906.      -0.176929E+010   4574.14       0.353305E+007  0.155175E+007
  3241.05        382906.      -0.158009E+010   4570.58       0.352664E+007  0.154417E+007
  3272.67        382906.      -0.139090E+010   4567.02       0.352022E+007  0.153657E+007
  3304.29        382906.      -0.120171E+010   4563.44       0.351379E+007  0.152895E+007
  3335.92        382906.      -0.101252E+010   4559.86       0.350737E+007  0.152132E+007
  3367.54        382906.      -0.823332E+009   4556.28       0.350094E+007  0.151367E+007
  3399.16        382906.      -0.634146E+009   4552.68       0.349451E+007  0.150600E+007
  3430.78        382906.      -0.444959E+009   4549.07       0.348807E+007  0.149831E+007
  3462.41        382906.      -0.255771E+009   4545.46       0.348163E+007  0.149061E+007
  3494.03        382906.      -0.665806E+008   4541.84       0.347518E+007  0.148289E+007
  3525.65        382906.       0.122612E+009   4538.21       0.346873E+007  0.147515E+007
  3557.28        382906.       0.311808E+009   4534.57       0.346228E+007  0.146739E+007
  3588.90        382906.       0.501009E+009   4530.92       0.345582E+007  0.145961E+007
  3620.52        382906.       0.690215E+009   4527.27       0.344935E+007  0.145182E+007
  3652.15        382906.       0.879427E+009   4523.60       0.344288E+007  0.144401E+007
  3683.77        382906.       0.106865E+010   4519.92       0.343639E+007  0.143618E+007
  3715.39        382906.       0.125787E+010   4516.24       0.342992E+007  0.142833E+007
  3747.02        382906.       0.144711E+010   4512.54       0.342343E+007  0.142046E+007
  3778.64        382906.       0.163635E+010   4508.84       0.341693E+007  0.141257E+007
  3810.26        382906.       0.182561E+010   4505.13       0.341042E+007  0.140467E+007
  3841.88        382906.       0.201488E+010   4501.40       0.340391E+007  0.139674E+007
  3873.51        382906.       0.220416E+010   4497.67       0.339739E+007  0.138880E+007
  3905.13        382906.       0.239345E+010   4493.92       0.339086E+007  0.138084E+007
  3936.75        382906.       0.397848E+010   4416.73       0.313784E+007  0.134059E+007
  3968.38        382906.       0.419154E+010   4411.41       0.313128E+007  0.133215E+007
  4000.00        382906.       0.440502E+010   4406.04       0.312457E+007  0.132368E+007
  2766.70        394872.      -0.331489E+010   4640.39       0.367248E+007  0.167353E+007
  2798.32        394872.      -0.312592E+010   4636.93       0.366606E+007  0.166625E+007
  2829.95        394872.      -0.293698E+010   4633.48       0.365965E+007  0.165896E+007
  2861.57        394872.      -0.274806E+010   4630.02       0.365324E+007  0.165164E+007
  2893.19        394872.      -0.255916E+010   4626.56       0.364683E+007  0.164431E+007
  2924.82        394872.      -0.237028E+010   4623.09       0.364043E+007  0.163696E+007
  2956.44        394872.      -0.218142E+010   4619.62       0.363397E+007  0.162960E+007
  2988.06        394872.      -0.199258E+010   4616.14       0.362762E+007  0.162222E+007
  3019.68        394872.      -0.180376E+010   4612.65       0.362122E+007  0.161482E+007
  3051.31        394872.      -0.161495E+010   4609.17       0.361483E+007  0.160740E+007
  3082.93        394872.      -0.142616E+010   4605.67       0.360843E+007  0.159997E+007
  3114.55        394872.      -0.123738E+010   4602.17       0.360203E+007  0.159251E+007
  3146.18        394872.      -0.104862E+010   4598.67       0.359563E+007  0.158505E+007
  3177.80        394872.      -0.859872E+009   4595.15       0.358923E+007  0.157756E+007
  3209.42        394872.      -0.671135E+009   4591.63       0.358284E+007  0.157006E+007
  3241.05        394872.      -0.482409E+009   4588.11       0.357643E+007  0.156254E+007
  3272.67        394872.      -0.293694E+009   4584.58       0.357004E+007  0.155500E+007
  3304.29        394872.      -0.104989E+009   4581.04       0.356363E+007  0.154745E+007
  3335.92        394872.       0.837075E+008   4577.49       0.355722E+007  0.153988E+007
  3367.54        394872.       0.272396E+009   4573.94       0.355081E+007  0.153229E+007
  3399.16        394872.       0.461077E+009   4570.38       0.354440E+007  0.152468E+007
  3430.78        394872.       0.649751E+009   4566.81       0.353799E+007  0.151706E+007
  3462.41        394872.       0.838420E+009   4563.23       0.353157E+007  0.150942E+007
  3494.03        394872.       0.102708E+010   4559.65       0.352515E+007  0.150176E+007
  3525.65        394872.       0.121574E+010   4556.06       0.351872E+007  0.149409E+007
  3557.28        394872.       0.140440E+010   4552.46       0.351230E+007  0.148639E+007
  3588.90        394872.       0.159306E+010   4548.85       0.350586E+007  0.147868E+007
  3620.52        394872.       0.178171E+010   4545.23       0.349959E+007  0.147095E+007
  3652.15        394872.       0.197036E+010   4541.60       0.349298E+007  0.146321E+007
  3683.77        394872.       0.215901E+010   4537.97       0.348586E+007  0.145544E+007
  3715.39        394872.       0.234767E+010   4534.33       0.348008E+007  0.144766E+007
  3747.02        394872.       0.253632E+010   4530.67       0.347459E+007  0.143986E+007
  3778.64        394872.       0.272498E+010   4527.01       0.346716E+007  0.143204E+007
  3810.26        394872.       0.291364E+010   4523.34       0.346052E+007  0.142420E+007
  3841.88        394872.       0.310231E+010   4519.66       0.345421E+007  0.141635E+007
  3873.51        394872.       0.329098E+010   4515.97       0.344772E+007  0.140847E+007
  3905.13        394872.       0.347966E+010   4512.27       0.344123E+007  0.140058E+007
  3936.75        394872.       0.366834E+010   4508.56       0.343448E+007  0.139266E+007
  3968.38        394872.       0.523106E+010   4432.70       0.317838E+007  0.135756E+007
  4000.00        394872.       0.544266E+010   4427.44       0.317177E+007  0.134920E+007
  2766.70        406838.      -0.220576E+010   4657.28       0.372188E+007  0.169073E+007
  2798.32        406838.      -0.201715E+010   4653.85       0.371546E+007  0.168351E+007
  2829.95        406838.      -0.182857E+010   4650.42       0.370905E+007  0.167628E+007
  2861.57        406838.      -0.164002E+010   4646.99       0.370265E+007  0.166903E+007
  2893.19        406838.      -0.145149E+010   4643.55       0.369624E+007  0.166176E+007
  2924.82        406838.      -0.126300E+010   4640.11       0.368985E+007  0.165448E+007
  2956.44        406838.      -0.107453E+010   4636.66       0.368345E+007  0.164717E+007
  2988.06        406838.      -0.886079E+009   4633.21       0.367706E+007  0.163985E+007
  3019.68        406838.      -0.697657E+009   4629.75       0.367067E+007  0.163252E+007
  3051.31        406838.      -0.509257E+009   4626.29       0.366435E+007  0.162516E+007
  3082.93        406838.      -0.320879E+009   4622.83       0.365789E+007  0.161779E+007
  3114.55        406838.      -0.132525E+009   4619.36       0.365113E+007  0.161040E+007
  3146.18        406838.       0.558130E+008   4615.88       0.364512E+007  0.160299E+007
  3177.80        406838.       0.244130E+009   4612.40       0.363864E+007  0.159557E+007
  3209.42        406838.       0.432427E+009   4608.91       0.363235E+007  0.158813E+007
  3241.05        406838.       0.620708E+009   4605.42       0.362596E+007  0.158067E+007
  3272.67        406838.       0.808971E+009   4601.92       0.361958E+007  0.157320E+007
  3304.29        406838.       0.997218E+009   4598.41       0.361320E+007  0.156570E+007
  3335.92        406838.       0.118545E+010   4594.90       0.360680E+007  0.155820E+007
  3367.54        406838.       0.137367E+010   4591.38       0.360041E+007  0.155067E+007
  3399.16        406838.       0.156187E+010   4587.85       0.359402E+007  0.154313E+007
  3430.78        406838.       0.175006E+010   4584.32       0.358764E+007  0.153557E+007
  3462.41        406838.       0.193824E+010   4580.78       0.358123E+007  0.152799E+007
  3494.03        406838.       0.212641E+010   4577.23       0.357483E+007  0.152039E+007
  3525.65        406838.       0.231457E+010   4573.67       0.356843E+007  0.151278E+007
  3557.28        406838.       0.250272E+010   4570.11       0.356202E+007  0.150515E+007
  3588.90        406838.       0.269086E+010   4566.54       0.355562E+007  0.149750E+007
  3620.52        406838.       0.287899E+010   4562.96       0.354921E+007  0.148984E+007
  3652.15        406838.       0.306711E+010   4559.37       0.354279E+007  0.148216E+007
  3683.77        406838.       0.325523E+010   4555.78       0.353635E+007  0.147446E+007
  3715.39        406838.       0.344334E+010   4552.17       0.352995E+007  0.146674E+007
  3747.02        406838.       0.363145E+010   4548.56       0.352352E+007  0.145901E+007
  3778.64        406838.       0.381956E+010   4544.94       0.351708E+007  0.145125E+007
  3810.26        406838.       0.400766E+010   4541.31       0.351064E+007  0.144348E+007
  3841.88        406838.       0.419576E+010   4537.67       0.350420E+007  0.143569E+007
  3873.51        406838.       0.438386E+010   4534.02       0.349775E+007  0.142788E+007
  3905.13        406838.       0.457196E+010   4530.36       0.349129E+007  0.142006E+007
  3936.75        406838.       0.476006E+010   4526.70       0.348483E+007  0.141221E+007
  3968.38        406838.       0.494816E+010   4523.02       0.347836E+007  0.140435E+007
  4000.00        406838.       0.513626E+010   4519.33       0.347189E+007  0.139647E+007
  2766.70        418804.      -0.109173E+010   4673.98       0.377105E+007  0.170770E+007
  2798.32        418804.      -0.903448E+009   4670.58       0.376463E+007  0.170055E+007
  2829.95        418804.      -0.715206E+009   4667.17       0.375822E+007  0.169338E+007
  2861.57        418804.      -0.527000E+009   4663.76       0.375182E+007  0.168619E+007
  2893.19        418804.      -0.338827E+009   4660.34       0.374542E+007  0.167898E+007
  2924.82        418804.      -0.150688E+009   4656.93       0.373903E+007  0.167176E+007
  2956.44        418804.       0.374196E+008   4653.50       0.373264E+007  0.166452E+007
  2988.06        418804.       0.225495E+009   4650.08       0.372625E+007  0.165726E+007
  3019.68        418804.       0.413541E+009   4646.65       0.371987E+007  0.164999E+007
  3051.31        418804.       0.601558E+009   4643.22       0.371348E+007  0.164269E+007
  3082.93        418804.       0.789546E+009   4639.78       0.370711E+007  0.163538E+007
  3114.55        418804.       0.977507E+009   4636.34       0.370073E+007  0.162806E+007
  3146.18        418804.       0.116544E+010   4632.89       0.369435E+007  0.162071E+007
  3177.80        418804.       0.135335E+010   4629.43       0.368798E+007  0.161335E+007
  3209.42        418804.       0.154124E+010   4625.98       0.368161E+007  0.160597E+007
  3241.05        418804.       0.172910E+010   4622.51       0.367524E+007  0.159858E+007
  3272.67        418804.       0.191693E+010   4619.04       0.366887E+007  0.159116E+007
  3304.29        418804.       0.210475E+010   4615.57       0.366249E+007  0.158373E+007
  3335.92        418804.       0.229254E+010   4612.09       0.365612E+007  0.157629E+007
  3367.54        418804.       0.248032E+010   4608.60       0.364975E+007  0.156882E+007
  3399.16        418804.       0.266807E+010   4605.11       0.364338E+007  0.156134E+007
  3430.78        418804.       0.285581E+010   4601.61       0.363701E+007  0.155384E+007
  3462.41        418804.       0.304353E+010   4598.10       0.363063E+007  0.154633E+007
  3494.03        418804.       0.323123E+010   4594.59       0.362424E+007  0.153879E+007
  3525.65        418804.       0.341891E+010   4591.07       0.361801E+007  0.153124E+007
  3557.28        418804.       0.360658E+010   4587.54       0.361148E+007  0.152368E+007
  3588.90        418804.       0.379423E+010   4584.00       0.360586E+007  0.151609E+007
  3620.52        418804.       0.398187E+010   4580.46       0.359859E+007  0.150849E+007
  3652.15        418804.       0.416950E+010   4576.91       0.359215E+007  0.150087E+007
  3683.77        418804.       0.435712E+010   4573.35       0.358593E+007  0.149324E+007
  3715.39        418804.       0.454472E+010   4569.79       0.357973E+007  0.148558E+007
  3747.02        418804.       0.473231E+010   4566.21       0.357312E+007  0.147791E+007
  3778.64        418804.       0.491990E+010   4562.63       0.356673E+007  0.147022E+007
  3810.26        418804.       0.510747E+010   4559.04       0.356031E+007  0.146252E+007
  3841.88        418804.       0.529503E+010   4555.44       0.355390E+007  0.145479E+007
  3873.51        418804.       0.548259E+010   4551.83       0.354748E+007  0.144705E+007
  3905.13        418804.       0.567014E+010   4548.22       0.354106E+007  0.143929E+007
  3936.75        418804.       0.585769E+010   4544.59       0.353462E+007  0.143151E+007
  3968.38        418804.       0.604523E+010   4540.96       0.352819E+007  0.142372E+007
  4000.00        418804.       0.623277E+010   4537.32       0.352175E+007  0.141590E+007
  2766.70        430770.       0.270898E+008   4690.50       0.381999E+007  0.172444E+007
  2798.32        430770.       0.215056E+009   4687.11       0.381358E+007  0.171735E+007
  2829.95        430770.       0.402980E+009   4683.73       0.380718E+007  0.171025E+007
  2861.57        430770.       0.590863E+009   4680.34       0.380077E+007  0.170312E+007
  2893.19        430770.       0.778705E+009   4676.95       0.379432E+007  0.169598E+007
  2924.82        430770.       0.966509E+009   4673.55       0.378798E+007  0.168882E+007
  2956.44        430770.       0.115427E+010   4670.16       0.378166E+007  0.168165E+007
  2988.06        430770.       0.134200E+010   4666.76       0.377521E+007  0.167445E+007
  3019.68        430770.       0.152969E+010   4663.35       0.376884E+007  0.166724E+007
  3051.31        430770.       0.171735E+010   4659.94       0.376246E+007  0.166001E+007
  3082.93        430770.       0.190497E+010   4656.53       0.375609E+007  0.165276E+007
  3114.55        430770.       0.209256E+010   4653.12       0.374972E+007  0.164549E+007
  3146.18        430770.       0.228012E+010   4649.70       0.374344E+007  0.163821E+007
  3177.80        430770.       0.246764E+010   4646.27       0.373699E+007  0.163091E+007
  3209.42        430770.       0.265514E+010   4642.84       0.373096E+007  0.162359E+007
  3241.05        430770.       0.284261E+010   4639.41       0.372427E+007  0.161626E+007
  3272.67        430770.       0.303004E+010   4635.97       0.371791E+007  0.160891E+007
  3304.29        430770.       0.321745E+010   4632.52       0.371155E+007  0.160154E+007
  3335.92        430770.       0.340483E+010   4629.07       0.370518E+007  0.159415E+007
  3367.54        430770.       0.359219E+010   4625.62       0.369884E+007  0.158675E+007
  3399.16        430770.       0.377952E+010   4622.16       0.369248E+007  0.157933E+007
  3430.78        430770.       0.396683E+010   4618.69       0.368613E+007  0.157189E+007
  3462.41        430770.       0.415411E+010   4615.21       0.367977E+007  0.156444E+007
  3494.03        430770.       0.434137E+010   4611.73       0.367341E+007  0.155697E+007
  3525.65        430770.       0.452861E+010   4608.25       0.366705E+007  0.154948E+007
  3557.28        430770.       0.471582E+010   4604.75       0.366068E+007  0.154197E+007
  3588.90        430770.       0.490302E+010   4601.25       0.365432E+007  0.153445E+007
  3620.52        430770.       0.509020E+010   4597.75       0.364796E+007  0.152691E+007
  3652.15        430770.       0.527736E+010   4594.23       0.364159E+007  0.151936E+007
  3683.77        430770.       0.546450E+010   4590.71       0.363523E+007  0.151178E+007
  3715.39        430770.       0.565162E+010   4587.18       0.362885E+007  0.150419E+007
  3747.02        430770.       0.583872E+010   4583.64       0.362247E+007  0.149659E+007
  3778.64        430770.       0.602581E+010   4580.10       0.361609E+007  0.148896E+007
  3810.26        430770.       0.621289E+010   4576.55       0.360973E+007  0.148132E+007
  3841.88        430770.       0.639995E+010   4572.99       0.360332E+007  0.147366E+007
  3873.51        430770.       0.658700E+010   4569.42       0.359714E+007  0.146598E+007
  3905.13        430770.       0.677404E+010   4565.84       0.359054E+007  0.145828E+007
  3936.75        430770.       0.696105E+010   4562.26       0.358526E+007  0.145057E+007
  3968.38        430770.       0.714807E+010   4558.67       0.357773E+007  0.144284E+007
  4000.00        430770.       0.733507E+010   4555.06       0.357107E+007  0.143509E+007
  2766.70        442735.       0.115056E+010   4706.83       0.386872E+007  0.174096E+007
  2798.32        442735.       0.133823E+010   4703.47       0.386231E+007  0.173394E+007
  2829.95        442735.       0.152586E+010   4700.10       0.385595E+007  0.172690E+007
  2861.57        442735.       0.171344E+010   4696.73       0.384950E+007  0.171984E+007
  2893.19        442735.       0.190097E+010   4693.37       0.384311E+007  0.171277E+007
  2924.82        442735.       0.208846E+010   4689.99       0.383671E+007  0.170567E+007
  2956.44        442735.       0.227591E+010   4686.62       0.383033E+007  0.169856E+007
  2988.06        442735.       0.246331E+010   4683.24       0.382395E+007  0.169142E+007
  3019.68        442735.       0.265067E+010   4679.87       0.381758E+007  0.168427E+007
  3051.31        442735.       0.283798E+010   4676.48       0.381121E+007  0.167711E+007
  3082.93        442735.       0.302526E+010   4673.10       0.380485E+007  0.166992E+007
  3114.55        442735.       0.321250E+010   4669.71       0.379849E+007  0.166272E+007
  3146.18        442735.       0.339971E+010   4666.31       0.379213E+007  0.165549E+007
  3177.80        442735.       0.358687E+010   4662.92       0.378578E+007  0.164826E+007
  3209.42        442735.       0.377400E+010   4659.52       0.377942E+007  0.164100E+007
  3241.05        442735.       0.396109E+010   4656.11       0.377308E+007  0.163373E+007
  3272.67        442735.       0.414815E+010   4652.70       0.376673E+007  0.162644E+007
  3304.29        442735.       0.433518E+010   4649.28       0.376038E+007  0.161913E+007
  3335.92        442735.       0.452217E+010   4645.86       0.375404E+007  0.161180E+007
  3367.54        442735.       0.470914E+010   4642.44       0.374770E+007  0.160446E+007
  3399.16        442735.       0.489607E+010   4639.01       0.374136E+007  0.159710E+007
  3430.78        442735.       0.508297E+010   4635.57       0.373501E+007  0.158973E+007
  3462.41        442735.       0.526984E+010   4632.13       0.372867E+007  0.158233E+007
  3494.03        442735.       0.545669E+010   4628.68       0.372233E+007  0.157492E+007
  3525.65        442735.       0.564351E+010   4625.22       0.371598E+007  0.156750E+007
  3557.28        442735.       0.583029E+010   4621.76       0.371032E+007  0.156005E+007
  3588.90        442735.       0.601706E+010   4618.30       0.370330E+007  0.155259E+007
  3620.52        442735.       0.620380E+010   4614.82       0.369695E+007  0.154512E+007
  3652.15        442735.       0.639051E+010   4611.34       0.369062E+007  0.153762E+007
  3683.77        442735.       0.657721E+010   4607.86       0.368445E+007  0.153011E+007
  3715.39        442735.       0.676388E+010   4604.36       0.367791E+007  0.152258E+007
  3747.02        442735.       0.695052E+010   4600.86       0.367156E+007  0.151503E+007
  3778.64        442735.       0.713715E+010   4597.35       0.366520E+007  0.150747E+007
  3810.26        442735.       0.732375E+010   4593.84       0.365884E+007  0.149989E+007
  3841.88        442735.       0.751034E+010   4590.32       0.365248E+007  0.149229E+007
  3873.51        442735.       0.769691E+010   4586.78       0.364626E+007  0.148468E+007
  3905.13        442735.       0.788346E+010   4583.25       0.363975E+007  0.147705E+007
  3936.75        442735.       0.806999E+010   4579.70       0.363338E+007  0.146940E+007
  3968.38        442735.       0.825650E+010   4576.15       0.362700E+007  0.146173E+007
  4000.00        442735.       0.844300E+010   4572.58       0.362062E+007  0.145405E+007
  2766.70        454701.       0.227856E+010   4722.99       0.391725E+007  0.175727E+007
  2798.32        454701.       0.246596E+010   4719.64       0.391084E+007  0.175032E+007
  2829.95        454701.       0.265331E+010   4716.30       0.390442E+007  0.174334E+007
  2861.57        454701.       0.284060E+010   4712.95       0.389802E+007  0.173635E+007
  2893.19        454701.       0.302785E+010   4709.61       0.389163E+007  0.172934E+007
  2924.82        454701.       0.321504E+010   4706.26       0.388524E+007  0.172231E+007
  2956.44        454701.       0.340219E+010   4702.91       0.387886E+007  0.171526E+007
  2988.06        454701.       0.358928E+010   4699.55       0.387249E+007  0.170819E+007
  3019.68        454701.       0.377633E+010   4696.20       0.386612E+007  0.170110E+007
  3051.31        454701.       0.396333E+010   4692.84       0.385975E+007  0.169400E+007
  3082.93        454701.       0.415029E+010   4689.48       0.385340E+007  0.168687E+007
  3114.55        454701.       0.433720E+010   4686.11       0.384704E+007  0.167973E+007
  3146.18        454701.       0.452407E+010   4682.75       0.384069E+007  0.167257E+007
  3177.80        454701.       0.471089E+010   4679.38       0.383425E+007  0.166539E+007
  3209.42        454701.       0.489768E+010   4676.00       0.382800E+007  0.165820E+007
  3241.05        454701.       0.508442E+010   4672.62       0.382170E+007  0.165099E+007
  3272.67        454701.       0.527113E+010   4669.24       0.381533E+007  0.164376E+007
  3304.29        454701.       0.545780E+010   4665.85       0.380899E+007  0.163651E+007
  3335.92        454701.       0.564443E+010   4662.46       0.380266E+007  0.162925E+007
  3367.54        454701.       0.583102E+010   4659.06       0.379633E+007  0.162197E+007
  3399.16        454701.       0.601757E+010   4655.66       0.379000E+007  0.161467E+007
  3430.78        454701.       0.620409E+010   4652.25       0.378367E+007  0.160735E+007
  3462.41        454701.       0.639058E+010   4648.84       0.377735E+007  0.160002E+007
  3494.03        454701.       0.657703E+010   4645.42       0.377102E+007  0.159267E+007
  3525.65        454701.       0.676346E+010   4642.00       0.376469E+007  0.158530E+007
  3557.28        454701.       0.694984E+010   4638.57       0.375837E+007  0.157792E+007
  3588.90        454701.       0.713620E+010   4635.14       0.375203E+007  0.157052E+007
  3620.52        454701.       0.732253E+010   4631.70       0.374571E+007  0.156310E+007
  3652.15        454701.       0.750883E+010   4628.25       0.373939E+007  0.155567E+007
  3683.77        454701.       0.769510E+010   4624.80       0.373306E+007  0.154822E+007
  3715.39        454701.       0.788134E+010   4621.34       0.372671E+007  0.154075E+007
  3747.02        454701.       0.806755E+010   4617.87       0.372040E+007  0.153327E+007
  3778.64        454701.       0.825374E+010   4614.40       0.371406E+007  0.152577E+007
  3810.26        454701.       0.843990E+010   4610.92       0.370773E+007  0.151825E+007
  3841.88        454701.       0.862603E+010   4607.43       0.370235E+007  0.151071E+007
  3873.51        454701.       0.881215E+010   4603.94       0.369505E+007  0.150316E+007
  3905.13        454701.       0.899824E+010   4600.44       0.368870E+007  0.149559E+007
  3936.75        454701.       0.918431E+010   4596.93       0.368251E+007  0.148800E+007
  3968.38        454701.       0.937035E+010   4593.41       0.367601E+007  0.148040E+007
  4000.00        454701.       0.955638E+010   4589.89       0.366966E+007  0.147278E+007
  2766.70        466667.       0.341097E+010   4738.98       0.396560E+007  0.177337E+007
  2798.32        466667.       0.359812E+010   4735.65       0.395916E+007  0.176649E+007
  2829.95        466667.       0.378521E+010   4732.33       0.395276E+007  0.175958E+007
  2861.57        466667.       0.397224E+010   4729.00       0.394636E+007  0.175265E+007
  2893.19        466667.       0.415922E+010   4725.68       0.393996E+007  0.174571E+007
  2924.82        466667.       0.434613E+010   4722.35       0.393357E+007  0.173874E+007
  2956.44        466667.       0.453300E+010   4719.02       0.392717E+007  0.173175E+007
  2988.06        466667.       0.471981E+010   4715.69       0.392081E+007  0.172475E+007
  3019.68        466667.       0.490656E+010   4712.36       0.391445E+007  0.171772E+007
  3051.31        466667.       0.509327E+010   4709.02       0.390809E+007  0.171068E+007
  3082.93        466667.       0.527992E+010   4705.68       0.390174E+007  0.170362E+007
  3114.55        466667.       0.546653E+010   4702.34       0.389539E+007  0.169654E+007
  3146.18        466667.       0.565308E+010   4699.00       0.388905E+007  0.168944E+007
  3177.80        466667.       0.583959E+010   4695.66       0.388271E+007  0.168233E+007
  3209.42        466667.       0.602605E+010   4692.31       0.387637E+007  0.167520E+007
  3241.05        466667.       0.621247E+010   4688.95       0.387004E+007  0.166805E+007
  3272.67        466667.       0.639884E+010   4685.60       0.386371E+007  0.166088E+007
  3304.29        466667.       0.658517E+010   4682.24       0.385739E+007  0.165369E+007
  3335.92        466667.       0.677146E+010   4678.87       0.385107E+007  0.164649E+007
  3367.54        466667.       0.695770E+010   4675.50       0.384475E+007  0.163927E+007
  3399.16        466667.       0.714390E+010   4672.13       0.383843E+007  0.163203E+007
  3430.78        466667.       0.733006E+010   4668.75       0.383206E+007  0.162477E+007
  3462.41        466667.       0.751619E+010   4665.37       0.382580E+007  0.161750E+007
  3494.03        466667.       0.770227E+010   4661.98       0.381949E+007  0.161021E+007
  3525.65        466667.       0.788832E+010   4658.59       0.381331E+007  0.160291E+007
  3557.28        466667.       0.807433E+010   4655.19       0.380687E+007  0.159558E+007
  3588.90        466667.       0.826030E+010   4651.79       0.380041E+007  0.158824E+007
  3620.52        466667.       0.844624E+010   4648.38       0.379425E+007  0.158089E+007
  3652.15        466667.       0.863215E+010   4644.96       0.378776E+007  0.157351E+007
  3683.77        466667.       0.881802E+010   4641.54       0.378163E+007  0.156612E+007
  3715.39        466667.       0.900386E+010   4638.12       0.377528E+007  0.155872E+007
  3747.02        466667.       0.918966E+010   4634.68       0.376901E+007  0.155129E+007
  3778.64        466667.       0.937544E+010   4631.24       0.376269E+007  0.154385E+007
  3810.26        466667.       0.956118E+010   4627.80       0.375638E+007  0.153639E+007
  3841.88        466667.       0.974690E+010   4624.35       0.375006E+007  0.152892E+007
  3873.51        466667.       0.993258E+010   4620.89       0.374375E+007  0.152143E+007
  3905.13        466667.       0.101182E+011   4617.42       0.373743E+007  0.151392E+007
  3936.75        466667.       0.103039E+011   4613.95       0.373110E+007  0.150639E+007
  3968.38        466667.       0.104895E+011   4610.47       0.372478E+007  0.149885E+007
  4000.00        466667.       0.106750E+011   4606.98       0.371847E+007  0.149129E+007
